#  E (eV)   dos(E)     Int dos(E) EFermi =    4.837 eV
 -14.708  0.0000E+00  0.0000E+00
 -14.698  0.2018E+00  0.7966E-03
 -14.688  0.2546E+00  0.2947E-02
 -14.678  0.3569E+00  0.5990E-02
 -14.668  0.4524E+00  0.1005E-01
 -14.658  0.6130E+00  0.1532E-01
 -14.648  0.6049E+00  0.2144E-01
 -14.638  0.6303E+00  0.2762E-01
 -14.628  0.6127E+00  0.3387E-01
 -14.618  0.6086E+00  0.3995E-01
 -14.608  0.6150E+00  0.4606E-01
 -14.598  0.6196E+00  0.5224E-01
 -14.588  0.6149E+00  0.5841E-01
 -14.578  0.6161E+00  0.6458E-01
 -14.568  0.6145E+00  0.7072E-01
 -14.558  0.6168E+00  0.7688E-01
 -14.548  0.6173E+00  0.8305E-01
 -14.538  0.6129E+00  0.8921E-01
 -14.528  0.6117E+00  0.9532E-01
 -14.518  0.6173E+00  0.1015E+00
 -14.508  0.6187E+00  0.1077E+00
 -14.498  0.6183E+00  0.1138E+00
 -14.488  0.6177E+00  0.1200E+00
 -14.478  0.6170E+00  0.1262E+00
 -14.468  0.6123E+00  0.1323E+00
 -14.458  0.6116E+00  0.1385E+00
 -14.448  0.6132E+00  0.1446E+00
 -14.438  0.6174E+00  0.1507E+00
 -14.428  0.6210E+00  0.1569E+00
 -14.418  0.6198E+00  0.1631E+00
 -14.408  0.6192E+00  0.1693E+00
 -14.398  0.6184E+00  0.1755E+00
 -14.388  0.6159E+00  0.1817E+00
 -14.378  0.6121E+00  0.1878E+00
 -14.368  0.6127E+00  0.1940E+00
 -14.358  0.6141E+00  0.2001E+00
 -14.348  0.6162E+00  0.2062E+00
 -14.338  0.6192E+00  0.2124E+00
 -14.328  0.6217E+00  0.2186E+00
 -14.318  0.6211E+00  0.2248E+00
 -14.308  0.6199E+00  0.2310E+00
 -14.298  0.6187E+00  0.2372E+00
 -14.288  0.6168E+00  0.2434E+00
 -14.278  0.6141E+00  0.2496E+00
 -14.268  0.6134E+00  0.2557E+00
 -14.258  0.6142E+00  0.2618E+00
 -14.248  0.6156E+00  0.2680E+00
 -14.238  0.6173E+00  0.2742E+00
 -14.228  0.6194E+00  0.2803E+00
 -14.218  0.6219E+00  0.2865E+00
 -14.208  0.6222E+00  0.2928E+00
 -14.198  0.6212E+00  0.2990E+00
 -14.188  0.6204E+00  0.3052E+00
 -14.178  0.6188E+00  0.3114E+00
 -14.168  0.6159E+00  0.3176E+00
 -14.158  0.6150E+00  0.3237E+00
 -14.148  0.6151E+00  0.3299E+00
 -14.138  0.6155E+00  0.3360E+00
 -14.128  0.6164E+00  0.3422E+00
 -14.118  0.6177E+00  0.3483E+00
 -14.108  0.6191E+00  0.3545E+00
 -14.098  0.6208E+00  0.3607E+00
 -14.088  0.6226E+00  0.3669E+00
 -14.078  0.6227E+00  0.3732E+00
 -14.068  0.6222E+00  0.3794E+00
 -14.058  0.6211E+00  0.3856E+00
 -14.048  0.6199E+00  0.3918E+00
 -14.038  0.6175E+00  0.3980E+00
 -14.028  0.6164E+00  0.4042E+00
 -14.018  0.6161E+00  0.4103E+00
 -14.008  0.6165E+00  0.4165E+00
 -13.998  0.6172E+00  0.4227E+00
 -13.988  0.6180E+00  0.4288E+00
 -13.978  0.6190E+00  0.4350E+00
 -13.968  0.6202E+00  0.4412E+00
 -13.958  0.6214E+00  0.4474E+00
 -13.948  0.6228E+00  0.4537E+00
 -13.938  0.6239E+00  0.4599E+00
 -13.928  0.6231E+00  0.4661E+00
 -13.918  0.6225E+00  0.4724E+00
 -13.908  0.6217E+00  0.4786E+00
 -13.898  0.6200E+00  0.4848E+00
 -13.888  0.6183E+00  0.4910E+00
 -13.878  0.6179E+00  0.4972E+00
 -13.868  0.6178E+00  0.5033E+00
 -13.858  0.6180E+00  0.5095E+00
 -13.848  0.6184E+00  0.5157E+00
 -13.838  0.6191E+00  0.5219E+00
 -13.828  0.6199E+00  0.5281E+00
 -13.818  0.6208E+00  0.5343E+00
 -13.808  0.6218E+00  0.5405E+00
 -13.798  0.6229E+00  0.5467E+00
 -13.788  0.6240E+00  0.5529E+00
 -13.778  0.6248E+00  0.5592E+00
 -13.768  0.6243E+00  0.5654E+00
 -13.758  0.6235E+00  0.5717E+00
 -13.748  0.6227E+00  0.5779E+00
 -13.738  0.6213E+00  0.5841E+00
 -13.728  0.6200E+00  0.5903E+00
 -13.718  0.6194E+00  0.5965E+00
 -13.708  0.6194E+00  0.6027E+00
 -13.698  0.6196E+00  0.6089E+00
 -13.688  0.6198E+00  0.6151E+00
 -13.678  0.6202E+00  0.6213E+00
 -13.668  0.6208E+00  0.6275E+00
 -13.658  0.6214E+00  0.6337E+00
 -13.648  0.6221E+00  0.6400E+00
 -13.638  0.6229E+00  0.6462E+00
 -13.628  0.6238E+00  0.6524E+00
 -13.618  0.6248E+00  0.6587E+00
 -13.608  0.6258E+00  0.6649E+00
 -13.598  0.6258E+00  0.6712E+00
 -13.588  0.6252E+00  0.6774E+00
 -13.578  0.6246E+00  0.6837E+00
 -13.568  0.6235E+00  0.6899E+00
 -13.558  0.6219E+00  0.6961E+00
 -13.548  0.6214E+00  0.7024E+00
 -13.538  0.6211E+00  0.7086E+00
 -13.528  0.6211E+00  0.7148E+00
 -13.518  0.6213E+00  0.7210E+00
 -13.508  0.6215E+00  0.7272E+00
 -13.498  0.6219E+00  0.7334E+00
 -13.488  0.6223E+00  0.7396E+00
 -13.478  0.6228E+00  0.7459E+00
 -13.468  0.6234E+00  0.7521E+00
 -13.458  0.6241E+00  0.7583E+00
 -13.448  0.6248E+00  0.7646E+00
 -13.438  0.6255E+00  0.7708E+00
 -13.428  0.6263E+00  0.7771E+00
 -13.418  0.6271E+00  0.7834E+00
 -13.408  0.6270E+00  0.7896E+00
 -13.398  0.6266E+00  0.7959E+00
 -13.388  0.6260E+00  0.8022E+00
 -13.378  0.6252E+00  0.8084E+00
 -13.368  0.6239E+00  0.8147E+00
 -13.358  0.6232E+00  0.8209E+00
 -13.348  0.6230E+00  0.8271E+00
 -13.338  0.6229E+00  0.8334E+00
 -13.328  0.6230E+00  0.8396E+00
 -13.318  0.6232E+00  0.8458E+00
 -13.308  0.6235E+00  0.8520E+00
 -13.298  0.6239E+00  0.8583E+00
 -13.288  0.6243E+00  0.8645E+00
 -13.278  0.6248E+00  0.8708E+00
 -13.268  0.6253E+00  0.8770E+00
 -13.258  0.6258E+00  0.8833E+00
 -13.248  0.6264E+00  0.8895E+00
 -13.238  0.6271E+00  0.8958E+00
 -13.228  0.6277E+00  0.9021E+00
 -13.218  0.6284E+00  0.9084E+00
 -13.208  0.6288E+00  0.9146E+00
 -13.198  0.6283E+00  0.9209E+00
 -13.188  0.6279E+00  0.9272E+00
 -13.178  0.6273E+00  0.9335E+00
 -13.168  0.6261E+00  0.9398E+00
 -13.158  0.6255E+00  0.9460E+00
 -13.148  0.6252E+00  0.9523E+00
 -13.138  0.6251E+00  0.9585E+00
 -13.128  0.6251E+00  0.9648E+00
 -13.118  0.6252E+00  0.9710E+00
 -13.108  0.6253E+00  0.9773E+00
 -13.098  0.6255E+00  0.9835E+00
 -13.088  0.6258E+00  0.9898E+00
 -13.078  0.6262E+00  0.9960E+00
 -13.068  0.6267E+00  0.1002E+01
 -13.058  0.6271E+00  0.1009E+01
 -13.048  0.6276E+00  0.1015E+01
 -13.038  0.6281E+00  0.1021E+01
 -13.028  0.6286E+00  0.1027E+01
 -13.018  0.6292E+00  0.1034E+01
 -13.008  0.6298E+00  0.1040E+01
 -12.998  0.6304E+00  0.1046E+01
 -12.988  0.6306E+00  0.1053E+01
 -12.978  0.6303E+00  0.1059E+01
 -12.968  0.6297E+00  0.1065E+01
 -12.958  0.6291E+00  0.1072E+01
 -12.948  0.6281E+00  0.1078E+01
 -12.938  0.6276E+00  0.1084E+01
 -12.928  0.6274E+00  0.1090E+01
 -12.918  0.6273E+00  0.1097E+01
 -12.908  0.6274E+00  0.1103E+01
 -12.898  0.6275E+00  0.1109E+01
 -12.888  0.6277E+00  0.1115E+01
 -12.878  0.6279E+00  0.1122E+01
 -12.868  0.6281E+00  0.1128E+01
 -12.858  0.6284E+00  0.1134E+01
 -12.848  0.6287E+00  0.1141E+01
 -12.838  0.6290E+00  0.1147E+01
 -12.828  0.6295E+00  0.1153E+01
 -12.818  0.6299E+00  0.1159E+01
 -12.808  0.6304E+00  0.1166E+01
 -12.798  0.6309E+00  0.1172E+01
 -12.788  0.6313E+00  0.1178E+01
 -12.778  0.6318E+00  0.1185E+01
 -12.768  0.6324E+00  0.1191E+01
 -12.758  0.6328E+00  0.1197E+01
 -12.748  0.6325E+00  0.1204E+01
 -12.738  0.6322E+00  0.1210E+01
 -12.728  0.6317E+00  0.1216E+01
 -12.718  0.6308E+00  0.1223E+01
 -12.708  0.6303E+00  0.1229E+01
 -12.698  0.6300E+00  0.1235E+01
 -12.688  0.6299E+00  0.1242E+01
 -12.678  0.6299E+00  0.1248E+01
 -12.668  0.6299E+00  0.1254E+01
 -12.658  0.6301E+00  0.1260E+01
 -12.648  0.6302E+00  0.1267E+01
 -12.638  0.6305E+00  0.1273E+01
 -12.628  0.6308E+00  0.1279E+01
 -12.618  0.6311E+00  0.1286E+01
 -12.608  0.6314E+00  0.1292E+01
 -12.598  0.6317E+00  0.1298E+01
 -12.588  0.6320E+00  0.1305E+01
 -12.578  0.6324E+00  0.1311E+01
 -12.568  0.6327E+00  0.1317E+01
 -12.558  0.6332E+00  0.1324E+01
 -12.548  0.6336E+00  0.1330E+01
 -12.538  0.6341E+00  0.1336E+01
 -12.528  0.6346E+00  0.1343E+01
 -12.518  0.6350E+00  0.1349E+01
 -12.508  0.6352E+00  0.1355E+01
 -12.498  0.6350E+00  0.1362E+01
 -12.488  0.6346E+00  0.1368E+01
 -12.478  0.6341E+00  0.1374E+01
 -12.468  0.6334E+00  0.1381E+01
 -12.458  0.6330E+00  0.1387E+01
 -12.448  0.6329E+00  0.1393E+01
 -12.438  0.6328E+00  0.1400E+01
 -12.428  0.6328E+00  0.1406E+01
 -12.418  0.6329E+00  0.1412E+01
 -12.408  0.6330E+00  0.1419E+01
 -12.398  0.6332E+00  0.1425E+01
 -12.388  0.6333E+00  0.1431E+01
 -12.378  0.6336E+00  0.1438E+01
 -12.368  0.6338E+00  0.1444E+01
 -12.358  0.6341E+00  0.1450E+01
 -12.348  0.6345E+00  0.1457E+01
 -12.338  0.6348E+00  0.1463E+01
 -12.328  0.6352E+00  0.1469E+01
 -12.318  0.6355E+00  0.1476E+01
 -12.308  0.6359E+00  0.1482E+01
 -12.298  0.6362E+00  0.1488E+01
 -12.288  0.6366E+00  0.1495E+01
 -12.278  0.6370E+00  0.1501E+01
 -12.268  0.6375E+00  0.1508E+01
 -12.258  0.6379E+00  0.1514E+01
 -12.248  0.6382E+00  0.1520E+01
 -12.238  0.6379E+00  0.1527E+01
 -12.228  0.6376E+00  0.1533E+01
 -12.218  0.6372E+00  0.1539E+01
 -12.208  0.6365E+00  0.1546E+01
 -12.198  0.6363E+00  0.1552E+01
 -12.188  0.6361E+00  0.1558E+01
 -12.178  0.6361E+00  0.1565E+01
 -12.168  0.6362E+00  0.1571E+01
 -12.158  0.6362E+00  0.1578E+01
 -12.148  0.6364E+00  0.1584E+01
 -12.138  0.6365E+00  0.1590E+01
 -12.128  0.6367E+00  0.1597E+01
 -12.118  0.6369E+00  0.1603E+01
 -12.108  0.6371E+00  0.1609E+01
 -12.098  0.6374E+00  0.1616E+01
 -12.088  0.6376E+00  0.1622E+01
 -12.078  0.6379E+00  0.1629E+01
 -12.068  0.6382E+00  0.1635E+01
 -12.058  0.6386E+00  0.1641E+01
 -12.048  0.6389E+00  0.1648E+01
 -12.038  0.6393E+00  0.1654E+01
 -12.028  0.6397E+00  0.1660E+01
 -12.018  0.6401E+00  0.1667E+01
 -12.008  0.6404E+00  0.1673E+01
 -11.998  0.6408E+00  0.1680E+01
 -11.988  0.6412E+00  0.1686E+01
 -11.978  0.6416E+00  0.1693E+01
 -11.968  0.6415E+00  0.1699E+01
 -11.958  0.6413E+00  0.1705E+01
 -11.948  0.6409E+00  0.1712E+01
 -11.938  0.6404E+00  0.1718E+01
 -11.928  0.6401E+00  0.1725E+01
 -11.918  0.6400E+00  0.1731E+01
 -11.908  0.6399E+00  0.1737E+01
 -11.898  0.6400E+00  0.1744E+01
 -11.888  0.6400E+00  0.1750E+01
 -11.878  0.6402E+00  0.1757E+01
 -11.868  0.6403E+00  0.1763E+01
 -11.858  0.6405E+00  0.1769E+01
 -11.848  0.6407E+00  0.1776E+01
 -11.838  0.6409E+00  0.1782E+01
 -11.828  0.6412E+00  0.1789E+01
 -11.818  0.6414E+00  0.1795E+01
 -11.808  0.6417E+00  0.1801E+01
 -11.798  0.6420E+00  0.1808E+01
 -11.788  0.6423E+00  0.1814E+01
 -11.778  0.6426E+00  0.1821E+01
 -11.768  0.6429E+00  0.1827E+01
 -11.758  0.6432E+00  0.1834E+01
 -11.748  0.6435E+00  0.1840E+01
 -11.738  0.6439E+00  0.1846E+01
 -11.728  0.6443E+00  0.1853E+01
 -11.718  0.6447E+00  0.1859E+01
 -11.708  0.6451E+00  0.1866E+01
 -11.698  0.6455E+00  0.1872E+01
 -11.688  0.6458E+00  0.1879E+01
 -11.678  0.6456E+00  0.1885E+01
 -11.668  0.6454E+00  0.1892E+01
 -11.658  0.6451E+00  0.1898E+01
 -11.648  0.6446E+00  0.1904E+01
 -11.638  0.6445E+00  0.1911E+01
 -11.628  0.6445E+00  0.1917E+01
 -11.618  0.6445E+00  0.1924E+01
 -11.608  0.6446E+00  0.1930E+01
 -11.598  0.6447E+00  0.1937E+01
 -11.588  0.6448E+00  0.1943E+01
 -11.578  0.6450E+00  0.1950E+01
 -11.568  0.6452E+00  0.1956E+01
 -11.558  0.6454E+00  0.1963E+01
 -11.548  0.6457E+00  0.1969E+01
 -11.538  0.6459E+00  0.1975E+01
 -11.528  0.6462E+00  0.1982E+01
 -11.518  0.6465E+00  0.1988E+01
 -11.508  0.6468E+00  0.1995E+01
 -11.498  0.6471E+00  0.2001E+01
 -11.488  0.6474E+00  0.2008E+01
 -11.478  0.6477E+00  0.2014E+01
 -11.468  0.6480E+00  0.2021E+01
 -11.458  0.6484E+00  0.2027E+01
 -11.448  0.6487E+00  0.2034E+01
 -11.438  0.6490E+00  0.2040E+01
 -11.428  0.6494E+00  0.2047E+01
 -11.418  0.6497E+00  0.2053E+01
 -11.408  0.6501E+00  0.2060E+01
 -11.398  0.6505E+00  0.2066E+01
 -11.388  0.6508E+00  0.2073E+01
 -11.378  0.6508E+00  0.2079E+01
 -11.368  0.6507E+00  0.2086E+01
 -11.358  0.6504E+00  0.2092E+01
 -11.348  0.6501E+00  0.2099E+01
 -11.338  0.6500E+00  0.2105E+01
 -11.328  0.6501E+00  0.2112E+01
 -11.318  0.6501E+00  0.2118E+01
 -11.308  0.6503E+00  0.2125E+01
 -11.298  0.6504E+00  0.2131E+01
 -11.288  0.6506E+00  0.2138E+01
 -11.278  0.6508E+00  0.2144E+01
 -11.268  0.6510E+00  0.2151E+01
 -11.258  0.6512E+00  0.2157E+01
 -11.248  0.6515E+00  0.2164E+01
 -11.238  0.6518E+00  0.2170E+01
 -11.228  0.6521E+00  0.2177E+01
 -11.218  0.6524E+00  0.2183E+01
 -11.208  0.6526E+00  0.2190E+01
 -11.198  0.6530E+00  0.2196E+01
 -11.188  0.6533E+00  0.2203E+01
 -11.178  0.6536E+00  0.2209E+01
 -11.168  0.6540E+00  0.2216E+01
 -11.158  0.6543E+00  0.2222E+01
 -11.148  0.6547E+00  0.2229E+01
 -11.138  0.6551E+00  0.2236E+01
 -11.128  0.6555E+00  0.2242E+01
 -11.118  0.6558E+00  0.2249E+01
 -11.108  0.6562E+00  0.2255E+01
 -11.098  0.6566E+00  0.2262E+01
 -11.088  0.6570E+00  0.2268E+01
 -11.078  0.6573E+00  0.2275E+01
 -11.068  0.6573E+00  0.2282E+01
 -11.058  0.6573E+00  0.2288E+01
 -11.048  0.6572E+00  0.2295E+01
 -11.038  0.6570E+00  0.2301E+01
 -11.028  0.6571E+00  0.2308E+01
 -11.018  0.6572E+00  0.2314E+01
 -11.008  0.6573E+00  0.2321E+01
 -10.998  0.6575E+00  0.2328E+01
 -10.988  0.6577E+00  0.2334E+01
 -10.978  0.6579E+00  0.2341E+01
 -10.968  0.6582E+00  0.2347E+01
 -10.958  0.6584E+00  0.2354E+01
 -10.948  0.6587E+00  0.2360E+01
 -10.938  0.6590E+00  0.2367E+01
 -10.928  0.6594E+00  0.2374E+01
 -10.918  0.6597E+00  0.2380E+01
 -10.908  0.6600E+00  0.2387E+01
 -10.898  0.6603E+00  0.2393E+01
 -10.888  0.6607E+00  0.2400E+01
 -10.878  0.6611E+00  0.2407E+01
 -10.868  0.6615E+00  0.2413E+01
 -10.858  0.6618E+00  0.2420E+01
 -10.848  0.6622E+00  0.2426E+01
 -10.838  0.6626E+00  0.2433E+01
 -10.828  0.6630E+00  0.2440E+01
 -10.818  0.6634E+00  0.2446E+01
 -10.808  0.6639E+00  0.2453E+01
 -10.798  0.6643E+00  0.2460E+01
 -10.788  0.6648E+00  0.2466E+01
 -10.778  0.6652E+00  0.2473E+01
 -10.768  0.6657E+00  0.2480E+01
 -10.758  0.6661E+00  0.2486E+01
 -10.748  0.6663E+00  0.2493E+01
 -10.738  0.6664E+00  0.2500E+01
 -10.728  0.6665E+00  0.2506E+01
 -10.718  0.6664E+00  0.2513E+01
 -10.708  0.6665E+00  0.2520E+01
 -10.698  0.6667E+00  0.2526E+01
 -10.688  0.6670E+00  0.2533E+01
 -10.678  0.6673E+00  0.2540E+01
 -10.668  0.6676E+00  0.2546E+01
 -10.658  0.6680E+00  0.2553E+01
 -10.648  0.6683E+00  0.2560E+01
 -10.638  0.6687E+00  0.2566E+01
 -10.628  0.6691E+00  0.2573E+01
 -10.618  0.6695E+00  0.2580E+01
 -10.608  0.6699E+00  0.2586E+01
 -10.598  0.6703E+00  0.2593E+01
 -10.588  0.6708E+00  0.2600E+01
 -10.578  0.6712E+00  0.2606E+01
 -10.568  0.6717E+00  0.2613E+01
 -10.558  0.6721E+00  0.2620E+01
 -10.548  0.6726E+00  0.2627E+01
 -10.538  0.6731E+00  0.2633E+01
 -10.528  0.6736E+00  0.2640E+01
 -10.518  0.6741E+00  0.2647E+01
 -10.508  0.6746E+00  0.2654E+01
 -10.498  0.6751E+00  0.2660E+01
 -10.488  0.6757E+00  0.2667E+01
 -10.478  0.6762E+00  0.2674E+01
 -10.468  0.6768E+00  0.2681E+01
 -10.458  0.6773E+00  0.2687E+01
 -10.448  0.6779E+00  0.2694E+01
 -10.438  0.6785E+00  0.2701E+01
 -10.428  0.6791E+00  0.2708E+01
 -10.418  0.6797E+00  0.2715E+01
 -10.408  0.6800E+00  0.2721E+01
 -10.398  0.6803E+00  0.2728E+01
 -10.388  0.6806E+00  0.2735E+01
 -10.378  0.6809E+00  0.2742E+01
 -10.368  0.6813E+00  0.2749E+01
 -10.358  0.6817E+00  0.2755E+01
 -10.348  0.6822E+00  0.2762E+01
 -10.338  0.6827E+00  0.2769E+01
 -10.328  0.6833E+00  0.2776E+01
 -10.318  0.6839E+00  0.2783E+01
 -10.308  0.6845E+00  0.2790E+01
 -10.298  0.6851E+00  0.2796E+01
 -10.288  0.6858E+00  0.2803E+01
 -10.278  0.6865E+00  0.2810E+01
 -10.268  0.6872E+00  0.2817E+01
 -10.258  0.6879E+00  0.2824E+01
 -10.248  0.6886E+00  0.2831E+01
 -10.238  0.6893E+00  0.2838E+01
 -10.228  0.6900E+00  0.2844E+01
 -10.218  0.6908E+00  0.2851E+01
 -10.208  0.6916E+00  0.2858E+01
 -10.198  0.6924E+00  0.2865E+01
 -10.188  0.6932E+00  0.2872E+01
 -10.178  0.6940E+00  0.2879E+01
 -10.168  0.6948E+00  0.2886E+01
 -10.158  0.6957E+00  0.2893E+01
 -10.148  0.6965E+00  0.2900E+01
 -10.138  0.6974E+00  0.2907E+01
 -10.128  0.6983E+00  0.2914E+01
 -10.118  0.6993E+00  0.2921E+01
 -10.108  0.7003E+00  0.2928E+01
 -10.098  0.7012E+00  0.2935E+01
 -10.088  0.7022E+00  0.2942E+01
 -10.078  0.7033E+00  0.2949E+01
 -10.068  0.7042E+00  0.2956E+01
 -10.058  0.7052E+00  0.2963E+01
 -10.048  0.7061E+00  0.2970E+01
 -10.038  0.7071E+00  0.2977E+01
 -10.028  0.7082E+00  0.2984E+01
 -10.018  0.7093E+00  0.2991E+01
 -10.008  0.7104E+00  0.2998E+01
  -9.998  0.7115E+00  0.3006E+01
  -9.988  0.7127E+00  0.3013E+01
  -9.978  0.7138E+00  0.3020E+01
  -9.968  0.7150E+00  0.3027E+01
  -9.958  0.7163E+00  0.3034E+01
  -9.948  0.7177E+00  0.3041E+01
  -9.938  0.7192E+00  0.3048E+01
  -9.928  0.7208E+00  0.3056E+01
  -9.918  0.7225E+00  0.3063E+01
  -9.908  0.7242E+00  0.3070E+01
  -9.898  0.7261E+00  0.3077E+01
  -9.888  0.7279E+00  0.3085E+01
  -9.878  0.7298E+00  0.3092E+01
  -9.868  0.7316E+00  0.3099E+01
  -9.858  0.7335E+00  0.3107E+01
  -9.848  0.7355E+00  0.3114E+01
  -9.838  0.7376E+00  0.3121E+01
  -9.828  0.7397E+00  0.3129E+01
  -9.818  0.7420E+00  0.3136E+01
  -9.808  0.7442E+00  0.3143E+01
  -9.798  0.7465E+00  0.3151E+01
  -9.788  0.7489E+00  0.3158E+01
  -9.778  0.7513E+00  0.3166E+01
  -9.768  0.7540E+00  0.3173E+01
  -9.758  0.7570E+00  0.3181E+01
  -9.748  0.7604E+00  0.3189E+01
  -9.738  0.7637E+00  0.3196E+01
  -9.728  0.7671E+00  0.3204E+01
  -9.718  0.7707E+00  0.3212E+01
  -9.708  0.7748E+00  0.3219E+01
  -9.698  0.7793E+00  0.3227E+01
  -9.688  0.7842E+00  0.3235E+01
  -9.678  0.7891E+00  0.3243E+01
  -9.668  0.7940E+00  0.3251E+01
  -9.658  0.7990E+00  0.3259E+01
  -9.648  0.8039E+00  0.3267E+01
  -9.638  0.8089E+00  0.3275E+01
  -9.628  0.8140E+00  0.3283E+01
  -9.618  0.8196E+00  0.3291E+01
  -9.608  0.8266E+00  0.3299E+01
  -9.598  0.8351E+00  0.3307E+01
  -9.588  0.8465E+00  0.3316E+01
  -9.578  0.8601E+00  0.3324E+01
  -9.568  0.8761E+00  0.3333E+01
  -9.558  0.8923E+00  0.3342E+01
  -9.548  0.9085E+00  0.3351E+01
  -9.538  0.9247E+00  0.3360E+01
  -9.528  0.9409E+00  0.3369E+01
  -9.518  0.9573E+00  0.3379E+01
  -9.508  0.9762E+00  0.3389E+01
  -9.498  0.9977E+00  0.3398E+01
  -9.488  0.1178E+01  0.3409E+01
  -9.478  0.1332E+01  0.3422E+01
  -9.468  0.1210E+01  0.3434E+01
  -9.458  0.1089E+01  0.3446E+01
  -9.448  0.9832E+00  0.3456E+01
  -9.438  0.1149E+01  0.3467E+01
  -9.428  0.1129E+01  0.3478E+01
  -9.418  0.9178E+00  0.3489E+01
  -9.408  0.7972E+00  0.3497E+01
  -9.398  0.7783E+00  0.3505E+01
  -9.388  0.7594E+00  0.3513E+01
  -9.378  0.7424E+00  0.3520E+01
  -9.368  0.7295E+00  0.3528E+01
  -9.358  0.7212E+00  0.3535E+01
  -9.348  0.7211E+00  0.3542E+01
  -9.338  0.9956E+00  0.3550E+01
  -9.328  0.8950E+00  0.3560E+01
  -9.318  0.6816E+00  0.3568E+01
  -9.308  0.6680E+00  0.3574E+01
  -9.298  0.6545E+00  0.3581E+01
  -9.288  0.6410E+00  0.3588E+01
  -9.278  0.6277E+00  0.3594E+01
  -9.268  0.6146E+00  0.3600E+01
  -9.258  0.6017E+00  0.3606E+01
  -9.248  0.5888E+00  0.3612E+01
  -9.238  0.5762E+00  0.3618E+01
  -9.228  0.5643E+00  0.3624E+01
  -9.218  0.5533E+00  0.3629E+01
  -9.208  0.5620E+00  0.3635E+01
  -9.198  0.5977E+00  0.3641E+01
  -9.188  0.6484E+00  0.3647E+01
  -9.178  0.6753E+00  0.3654E+01
  -9.168  0.6299E+00  0.3660E+01
  -9.158  0.5582E+00  0.3666E+01
  -9.148  0.5480E+00  0.3672E+01
  -9.138  0.5378E+00  0.3677E+01
  -9.128  0.5276E+00  0.3682E+01
  -9.118  0.5174E+00  0.3687E+01
  -9.108  0.5072E+00  0.3693E+01
  -9.098  0.4969E+00  0.3698E+01
  -9.088  0.4867E+00  0.3703E+01
  -9.078  0.4765E+00  0.3707E+01
  -9.068  0.4663E+00  0.3712E+01
  -9.058  0.4561E+00  0.3717E+01
  -9.048  0.4459E+00  0.3721E+01
  -9.038  0.4357E+00  0.3726E+01
  -9.028  0.4282E+00  0.3730E+01
  -9.018  0.4307E+00  0.3734E+01
  -9.008  0.4395E+00  0.3739E+01
  -8.998  0.4486E+00  0.3743E+01
  -8.988  0.4587E+00  0.3748E+01
  -8.978  0.4689E+00  0.3752E+01
  -8.968  0.4721E+00  0.3757E+01
  -8.958  0.4535E+00  0.3762E+01
  -8.948  0.4350E+00  0.3766E+01
  -8.938  0.4386E+00  0.3770E+01
  -8.928  0.4308E+00  0.3775E+01
  -8.918  0.4230E+00  0.3779E+01
  -8.908  0.4153E+00  0.3783E+01
  -8.898  0.4075E+00  0.3787E+01
  -8.888  0.3998E+00  0.3791E+01
  -8.878  0.3920E+00  0.3795E+01
  -8.868  0.3842E+00  0.3799E+01
  -8.858  0.3765E+00  0.3803E+01
  -8.848  0.3687E+00  0.3807E+01
  -8.838  0.3610E+00  0.3810E+01
  -8.828  0.3532E+00  0.3814E+01
  -8.818  0.3454E+00  0.3817E+01
  -8.808  0.3377E+00  0.3821E+01
  -8.798  0.3299E+00  0.3824E+01
  -8.788  0.3254E+00  0.3827E+01
  -8.778  0.3260E+00  0.3831E+01
  -8.768  0.3276E+00  0.3834E+01
  -8.758  0.3293E+00  0.3837E+01
  -8.748  0.3310E+00  0.3840E+01
  -8.738  0.3327E+00  0.3844E+01
  -8.728  0.3343E+00  0.3847E+01
  -8.718  0.3360E+00  0.3850E+01
  -8.708  0.3377E+00  0.3854E+01
  -8.698  0.3107E+00  0.3857E+01
  -8.688  0.2870E+00  0.3860E+01
  -8.678  0.2942E+00  0.3863E+01
  -8.668  0.3026E+00  0.3866E+01
  -8.658  0.3092E+00  0.3869E+01
  -8.648  0.3108E+00  0.3872E+01
  -8.638  0.3064E+00  0.3875E+01
  -8.628  0.3004E+00  0.3878E+01
  -8.618  0.2943E+00  0.3881E+01
  -8.608  0.2883E+00  0.3884E+01
  -8.598  0.2822E+00  0.3887E+01
  -8.588  0.2762E+00  0.3890E+01
  -8.578  0.2702E+00  0.3893E+01
  -8.568  0.2641E+00  0.3895E+01
  -8.558  0.2581E+00  0.3898E+01
  -8.548  0.2520E+00  0.3900E+01
  -8.538  0.2460E+00  0.3903E+01
  -8.528  0.2399E+00  0.3905E+01
  -8.518  0.2339E+00  0.3908E+01
  -8.508  0.2279E+00  0.3910E+01
  -8.498  0.2245E+00  0.3912E+01
  -8.488  0.2241E+00  0.3914E+01
  -8.478  0.2240E+00  0.3917E+01
  -8.468  0.2239E+00  0.3919E+01
  -8.458  0.2238E+00  0.3921E+01
  -8.448  0.2236E+00  0.3923E+01
  -8.438  0.2235E+00  0.3926E+01
  -8.428  0.2234E+00  0.3928E+01
  -8.418  0.2354E+00  0.3930E+01
  -8.408  0.2793E+00  0.3933E+01
  -8.398  0.3317E+00  0.3936E+01
  -8.388  0.4518E+00  0.3940E+01
  -8.378  0.6520E+00  0.3945E+01
  -8.368  0.7972E+00  0.3953E+01
  -8.358  0.6687E+00  0.3960E+01
  -8.348  0.5379E+00  0.3966E+01
  -8.338  0.5623E+00  0.3971E+01
  -8.328  0.5855E+00  0.3977E+01
  -8.318  0.1025E+01  0.3983E+01
  -8.308  0.9521E+00  0.3993E+01
  -8.298  0.6224E+00  0.4001E+01
  -8.288  0.6232E+00  0.4007E+01
  -8.278  0.6240E+00  0.4013E+01
  -8.268  0.6248E+00  0.4019E+01
  -8.258  0.6257E+00  0.4026E+01
  -8.248  0.6265E+00  0.4032E+01
  -8.238  0.6280E+00  0.4038E+01
  -8.228  0.6307E+00  0.4045E+01
  -8.218  0.6347E+00  0.4051E+01
  -8.208  0.7993E+00  0.4058E+01
  -8.198  0.8663E+00  0.4067E+01
  -8.188  0.6659E+00  0.4074E+01
  -8.178  0.6215E+00  0.4080E+01
  -8.168  0.6185E+00  0.4087E+01
  -8.158  0.6174E+00  0.4093E+01
  -8.148  0.6186E+00  0.4099E+01
  -8.138  0.6211E+00  0.4105E+01
  -8.128  0.6269E+00  0.4111E+01
  -8.118  0.6356E+00  0.4118E+01
  -8.108  0.6446E+00  0.4124E+01
  -8.098  0.6537E+00  0.4131E+01
  -8.088  0.6627E+00  0.4137E+01
  -8.078  0.6718E+00  0.4144E+01
  -8.068  0.6809E+00  0.4151E+01
  -8.058  0.7718E+00  0.4158E+01
  -8.048  0.8058E+00  0.4166E+01
  -8.038  0.7392E+00  0.4174E+01
  -8.028  0.6677E+00  0.4181E+01
  -8.018  0.6175E+00  0.4187E+01
  -8.008  0.6098E+00  0.4193E+01
  -7.998  0.6120E+00  0.4199E+01
  -7.988  0.6162E+00  0.4205E+01
  -7.978  0.6206E+00  0.4212E+01
  -7.968  0.6251E+00  0.4218E+01
  -7.958  0.6295E+00  0.4224E+01
  -7.948  0.6340E+00  0.4230E+01
  -7.938  0.6384E+00  0.4237E+01
  -7.928  0.6429E+00  0.4243E+01
  -7.918  0.6473E+00  0.4250E+01
  -7.908  0.6519E+00  0.4256E+01
  -7.898  0.6569E+00  0.4263E+01
  -7.888  0.6623E+00  0.4269E+01
  -7.878  0.7034E+00  0.4276E+01
  -7.868  0.7633E+00  0.4283E+01
  -7.858  0.7280E+00  0.4291E+01
  -7.848  0.6901E+00  0.4298E+01
  -7.838  0.6599E+00  0.4305E+01
  -7.828  0.6360E+00  0.4311E+01
  -7.818  0.6224E+00  0.4317E+01
  -7.808  0.6258E+00  0.4324E+01
  -7.798  0.6298E+00  0.4330E+01
  -7.788  0.6337E+00  0.4336E+01
  -7.778  0.6379E+00  0.4343E+01
  -7.768  0.6443E+00  0.4349E+01
  -7.758  0.6553E+00  0.4356E+01
  -7.748  0.6682E+00  0.4362E+01
  -7.738  0.6816E+00  0.4369E+01
  -7.728  0.6950E+00  0.4376E+01
  -7.718  0.7084E+00  0.4383E+01
  -7.708  0.7218E+00  0.4390E+01
  -7.698  0.7352E+00  0.4397E+01
  -7.688  0.7485E+00  0.4405E+01
  -7.678  0.7976E+00  0.4412E+01
  -7.668  0.9008E+00  0.4421E+01
  -7.658  0.8585E+00  0.4429E+01
  -7.648  0.8182E+00  0.4438E+01
  -7.638  0.7872E+00  0.4446E+01
  -7.628  0.7693E+00  0.4454E+01
  -7.618  0.7859E+00  0.4461E+01
  -7.608  0.8034E+00  0.4469E+01
  -7.598  0.8210E+00  0.4477E+01
  -7.588  0.8386E+00  0.4486E+01
  -7.578  0.8568E+00  0.4494E+01
  -7.568  0.8757E+00  0.4503E+01
  -7.558  0.1133E+01  0.4512E+01
  -7.548  0.1241E+01  0.4526E+01
  -7.538  0.1145E+01  0.4537E+01
  -7.528  0.1322E+01  0.4549E+01
  -7.518  0.1258E+01  0.4562E+01
  -7.508  0.1035E+01  0.4574E+01
  -7.498  0.1013E+01  0.4584E+01
  -7.488  0.9915E+00  0.4594E+01
  -7.478  0.9697E+00  0.4604E+01
  -7.468  0.9487E+00  0.4613E+01
  -7.458  0.9326E+00  0.4623E+01
  -7.448  0.9202E+00  0.4632E+01
  -7.438  0.9080E+00  0.4641E+01
  -7.428  0.8957E+00  0.4650E+01
  -7.418  0.8834E+00  0.4659E+01
  -7.408  0.8711E+00  0.4668E+01
  -7.398  0.8589E+00  0.4676E+01
  -7.388  0.8476E+00  0.4685E+01
  -7.378  0.8391E+00  0.4693E+01
  -7.368  0.8315E+00  0.4702E+01
  -7.358  0.8238E+00  0.4710E+01
  -7.348  0.8162E+00  0.4718E+01
  -7.338  0.8087E+00  0.4726E+01
  -7.328  0.8020E+00  0.4734E+01
  -7.318  0.7977E+00  0.4742E+01
  -7.308  0.7938E+00  0.4750E+01
  -7.298  0.7901E+00  0.4758E+01
  -7.288  0.7864E+00  0.4766E+01
  -7.278  0.7830E+00  0.4774E+01
  -7.268  0.7795E+00  0.4782E+01
  -7.258  0.7760E+00  0.4790E+01
  -7.248  0.7727E+00  0.4797E+01
  -7.238  0.7695E+00  0.4805E+01
  -7.228  0.7663E+00  0.4813E+01
  -7.218  0.7631E+00  0.4820E+01
  -7.208  0.7599E+00  0.4828E+01
  -7.198  0.7567E+00  0.4836E+01
  -7.188  0.7535E+00  0.4843E+01
  -7.178  0.7504E+00  0.4851E+01
  -7.168  0.7473E+00  0.4858E+01
  -7.158  0.7443E+00  0.4866E+01
  -7.148  0.7412E+00  0.4873E+01
  -7.138  0.7382E+00  0.4880E+01
  -7.128  0.7352E+00  0.4888E+01
  -7.118  0.7321E+00  0.4895E+01
  -7.108  0.7240E+00  0.4902E+01
  -7.098  0.7184E+00  0.4910E+01
  -7.088  0.7168E+00  0.4917E+01
  -7.078  0.7151E+00  0.4924E+01
  -7.068  0.7135E+00  0.4931E+01
  -7.058  0.7118E+00  0.4938E+01
  -7.048  0.7102E+00  0.4945E+01
  -7.038  0.7086E+00  0.4952E+01
  -7.028  0.7070E+00  0.4959E+01
  -7.018  0.7054E+00  0.4967E+01
  -7.008  0.7038E+00  0.4974E+01
  -6.998  0.7021E+00  0.4981E+01
  -6.988  0.7005E+00  0.4988E+01
  -6.978  0.6989E+00  0.4995E+01
  -6.968  0.6972E+00  0.5002E+01
  -6.958  0.6956E+00  0.5009E+01
  -6.948  0.6939E+00  0.5016E+01
  -6.938  0.6923E+00  0.5022E+01
  -6.928  0.6907E+00  0.5029E+01
  -6.918  0.6885E+00  0.5036E+01
  -6.908  0.6855E+00  0.5043E+01
  -6.898  0.6826E+00  0.5050E+01
  -6.888  0.6796E+00  0.5057E+01
  -6.878  0.6766E+00  0.5064E+01
  -6.868  0.6736E+00  0.5070E+01
  -6.858  0.6706E+00  0.5077E+01
  -6.848  0.6676E+00  0.5084E+01
  -6.838  0.6648E+00  0.5090E+01
  -6.828  0.6634E+00  0.5097E+01
  -6.818  0.6625E+00  0.5104E+01
  -6.808  0.6615E+00  0.5110E+01
  -6.798  0.6605E+00  0.5117E+01
  -6.788  0.6596E+00  0.5123E+01
  -6.778  0.6586E+00  0.5130E+01
  -6.768  0.6577E+00  0.5137E+01
  -6.758  0.6566E+00  0.5143E+01
  -6.748  0.6553E+00  0.5150E+01
  -6.738  0.6539E+00  0.5156E+01
  -6.728  0.6524E+00  0.5163E+01
  -6.718  0.6509E+00  0.5169E+01
  -6.708  0.6494E+00  0.5176E+01
  -6.698  0.6480E+00  0.5182E+01
  -6.688  0.6465E+00  0.5189E+01
  -6.678  0.6450E+00  0.5195E+01
  -6.668  0.6435E+00  0.5202E+01
  -6.658  0.6421E+00  0.5208E+01
  -6.648  0.6406E+00  0.5215E+01
  -6.638  0.6391E+00  0.5221E+01
  -6.628  0.6377E+00  0.5227E+01
  -6.618  0.6362E+00  0.5234E+01
  -6.608  0.6347E+00  0.5240E+01
  -6.598  0.6302E+00  0.5246E+01
  -6.588  0.6238E+00  0.5253E+01
  -6.578  0.6230E+00  0.5259E+01
  -6.568  0.6221E+00  0.5265E+01
  -6.558  0.6212E+00  0.5271E+01
  -6.548  0.6203E+00  0.5278E+01
  -6.538  0.6195E+00  0.5284E+01
  -6.528  0.6186E+00  0.5290E+01
  -6.518  0.6177E+00  0.5296E+01
  -6.508  0.6168E+00  0.5302E+01
  -6.498  0.6160E+00  0.5308E+01
  -6.488  0.6151E+00  0.5315E+01
  -6.478  0.6142E+00  0.5321E+01
  -6.468  0.6133E+00  0.5327E+01
  -6.458  0.6125E+00  0.5333E+01
  -6.448  0.6116E+00  0.5339E+01
  -6.438  0.6106E+00  0.5345E+01
  -6.428  0.6096E+00  0.5351E+01
  -6.418  0.6086E+00  0.5357E+01
  -6.408  0.6076E+00  0.5364E+01
  -6.398  0.6066E+00  0.5370E+01
  -6.388  0.6055E+00  0.5376E+01
  -6.378  0.6038E+00  0.5382E+01
  -6.368  0.6016E+00  0.5388E+01
  -6.358  0.5994E+00  0.5394E+01
  -6.348  0.5972E+00  0.5400E+01
  -6.338  0.5950E+00  0.5406E+01
  -6.328  0.5927E+00  0.5412E+01
  -6.318  0.5905E+00  0.5418E+01
  -6.308  0.5883E+00  0.5423E+01
  -6.298  0.5862E+00  0.5429E+01
  -6.288  0.5853E+00  0.5435E+01
  -6.278  0.5847E+00  0.5441E+01
  -6.268  0.5840E+00  0.5447E+01
  -6.258  0.5834E+00  0.5453E+01
  -6.248  0.5827E+00  0.5459E+01
  -6.238  0.5821E+00  0.5464E+01
  -6.228  0.5814E+00  0.5470E+01
  -6.218  0.5808E+00  0.5476E+01
  -6.208  0.5801E+00  0.5482E+01
  -6.198  0.5794E+00  0.5488E+01
  -6.188  0.5786E+00  0.5493E+01
  -6.178  0.5775E+00  0.5499E+01
  -6.168  0.5764E+00  0.5505E+01
  -6.158  0.5753E+00  0.5511E+01
  -6.148  0.5742E+00  0.5516E+01
  -6.138  0.5731E+00  0.5522E+01
  -6.128  0.5720E+00  0.5528E+01
  -6.118  0.5709E+00  0.5534E+01
  -6.108  0.5698E+00  0.5539E+01
  -6.098  0.5687E+00  0.5545E+01
  -6.088  0.5675E+00  0.5551E+01
  -6.078  0.5664E+00  0.5556E+01
  -6.068  0.5653E+00  0.5562E+01
  -6.058  0.5641E+00  0.5568E+01
  -6.048  0.5630E+00  0.5573E+01
  -6.038  0.5618E+00  0.5579E+01
  -6.028  0.5559E+00  0.5585E+01
  -6.018  0.5535E+00  0.5590E+01
  -6.008  0.5530E+00  0.5596E+01
  -5.998  0.5524E+00  0.5601E+01
  -5.988  0.5517E+00  0.5607E+01
  -5.978  0.5510E+00  0.5612E+01
  -5.968  0.5503E+00  0.5618E+01
  -5.958  0.5496E+00  0.5623E+01
  -5.948  0.5490E+00  0.5629E+01
  -5.938  0.5483E+00  0.5634E+01
  -5.928  0.5476E+00  0.5640E+01
  -5.918  0.5469E+00  0.5645E+01
  -5.908  0.5462E+00  0.5651E+01
  -5.898  0.5455E+00  0.5656E+01
  -5.888  0.5447E+00  0.5661E+01
  -5.878  0.5440E+00  0.5667E+01
  -5.868  0.5433E+00  0.5672E+01
  -5.858  0.5426E+00  0.5678E+01
  -5.848  0.5419E+00  0.5683E+01
  -5.838  0.5412E+00  0.5689E+01
  -5.828  0.5405E+00  0.5694E+01
  -5.818  0.5397E+00  0.5699E+01
  -5.808  0.5389E+00  0.5705E+01
  -5.798  0.5380E+00  0.5710E+01
  -5.788  0.5366E+00  0.5716E+01
  -5.778  0.5347E+00  0.5721E+01
  -5.768  0.5328E+00  0.5726E+01
  -5.758  0.5310E+00  0.5732E+01
  -5.748  0.5303E+00  0.5737E+01
  -5.738  0.5722E+00  0.5742E+01
  -5.728  0.6140E+00  0.5748E+01
  -5.718  0.6558E+00  0.5755E+01
  -5.708  0.6979E+00  0.5761E+01
  -5.698  0.7410E+00  0.5769E+01
  -5.688  0.7842E+00  0.5776E+01
  -5.678  0.7282E+00  0.5784E+01
  -5.668  0.6908E+00  0.5791E+01
  -5.658  0.6936E+00  0.5798E+01
  -5.648  0.6963E+00  0.5805E+01
  -5.638  0.6991E+00  0.5812E+01
  -5.628  0.7018E+00  0.5819E+01
  -5.618  0.7045E+00  0.5826E+01
  -5.608  0.7072E+00  0.5833E+01
  -5.598  0.7098E+00  0.5840E+01
  -5.588  0.7125E+00  0.5847E+01
  -5.578  0.7152E+00  0.5854E+01
  -5.568  0.7190E+00  0.5862E+01
  -5.558  0.7229E+00  0.5869E+01
  -5.548  0.7269E+00  0.5876E+01
  -5.538  0.7308E+00  0.5883E+01
  -5.528  0.7348E+00  0.5891E+01
  -5.518  0.7353E+00  0.5898E+01
  -5.508  0.7295E+00  0.5905E+01
  -5.498  0.7235E+00  0.5913E+01
  -5.488  0.7176E+00  0.5920E+01
  -5.478  0.7160E+00  0.5927E+01
  -5.468  0.7160E+00  0.5934E+01
  -5.458  0.7160E+00  0.5941E+01
  -5.448  0.7160E+00  0.5948E+01
  -5.438  0.7160E+00  0.5956E+01
  -5.428  0.7160E+00  0.5963E+01
  -5.418  0.7123E+00  0.5970E+01
  -5.408  0.7109E+00  0.5977E+01
  -5.398  0.7114E+00  0.5984E+01
  -5.388  0.7120E+00  0.5991E+01
  -5.378  0.7141E+00  0.5998E+01
  -5.368  0.7182E+00  0.6005E+01
  -5.358  0.7199E+00  0.6013E+01
  -5.348  0.7216E+00  0.6020E+01
  -5.338  0.7233E+00  0.6027E+01
  -5.328  0.7249E+00  0.6034E+01
  -5.318  0.7266E+00  0.6042E+01
  -5.308  0.7283E+00  0.6049E+01
  -5.298  0.7299E+00  0.6056E+01
  -5.288  0.7316E+00  0.6063E+01
  -5.278  0.7333E+00  0.6071E+01
  -5.268  0.7349E+00  0.6078E+01
  -5.258  0.7366E+00  0.6085E+01
  -5.248  0.7342E+00  0.6093E+01
  -5.238  0.7310E+00  0.6100E+01
  -5.228  0.7300E+00  0.6107E+01
  -5.218  0.7290E+00  0.6115E+01
  -5.208  0.7280E+00  0.6122E+01
  -5.198  0.7272E+00  0.6129E+01
  -5.188  0.7273E+00  0.6137E+01
  -5.178  0.7283E+00  0.6144E+01
  -5.168  0.7294E+00  0.6151E+01
  -5.158  0.7302E+00  0.6158E+01
  -5.148  0.7304E+00  0.6166E+01
  -5.138  0.7305E+00  0.6173E+01
  -5.128  0.7305E+00  0.6180E+01
  -5.118  0.7305E+00  0.6188E+01
  -5.108  0.7306E+00  0.6195E+01
  -5.098  0.7306E+00  0.6202E+01
  -5.088  0.7303E+00  0.6210E+01
  -5.078  0.7301E+00  0.6217E+01
  -5.068  0.7307E+00  0.6224E+01
  -5.058  0.7315E+00  0.6232E+01
  -5.048  0.7323E+00  0.6239E+01
  -5.038  0.7331E+00  0.6246E+01
  -5.028  0.7339E+00  0.6254E+01
  -5.018  0.7348E+00  0.6261E+01
  -5.008  0.7356E+00  0.6268E+01
  -4.998  0.7364E+00  0.6276E+01
  -4.988  0.7372E+00  0.6283E+01
  -4.978  0.7380E+00  0.6290E+01
  -4.968  0.7388E+00  0.6298E+01
  -4.958  0.7396E+00  0.6305E+01
  -4.948  0.7404E+00  0.6312E+01
  -4.938  0.7412E+00  0.6320E+01
  -4.928  0.7457E+00  0.6327E+01
  -4.918  0.7464E+00  0.6335E+01
  -4.908  0.7455E+00  0.6342E+01
  -4.898  0.7453E+00  0.6350E+01
  -4.888  0.7454E+00  0.6357E+01
  -4.878  0.7454E+00  0.6365E+01
  -4.868  0.7455E+00  0.6372E+01
  -4.858  0.7455E+00  0.6380E+01
  -4.848  0.7457E+00  0.6387E+01
  -4.838  0.7458E+00  0.6394E+01
  -4.828  0.7460E+00  0.6402E+01
  -4.818  0.7462E+00  0.6409E+01
  -4.808  0.7464E+00  0.6417E+01
  -4.798  0.7466E+00  0.6424E+01
  -4.788  0.7468E+00  0.6432E+01
  -4.778  0.7470E+00  0.6439E+01
  -4.768  0.7458E+00  0.6447E+01
  -4.758  0.7430E+00  0.6454E+01
  -4.748  0.7436E+00  0.6462E+01
  -4.738  0.7441E+00  0.6469E+01
  -4.728  0.7446E+00  0.6476E+01
  -4.718  0.7451E+00  0.6484E+01
  -4.708  0.7456E+00  0.6491E+01
  -4.698  0.7464E+00  0.6499E+01
  -4.688  0.7479E+00  0.6506E+01
  -4.678  0.7494E+00  0.6514E+01
  -4.668  0.7508E+00  0.6521E+01
  -4.658  0.7522E+00  0.6529E+01
  -4.648  0.7535E+00  0.6536E+01
  -4.638  0.7549E+00  0.6544E+01
  -4.628  0.7563E+00  0.6551E+01
  -4.618  0.7576E+00  0.6559E+01
  -4.608  0.7589E+00  0.6567E+01
  -4.598  0.7598E+00  0.6574E+01
  -4.588  0.7605E+00  0.6582E+01
  -4.578  0.7612E+00  0.6589E+01
  -4.568  0.7619E+00  0.6597E+01
  -4.558  0.7620E+00  0.6605E+01
  -4.548  0.7619E+00  0.6612E+01
  -4.538  0.7621E+00  0.6620E+01
  -4.528  0.7623E+00  0.6627E+01
  -4.518  0.7627E+00  0.6635E+01
  -4.508  0.7630E+00  0.6643E+01
  -4.498  0.7633E+00  0.6650E+01
  -4.488  0.7636E+00  0.6658E+01
  -4.478  0.7637E+00  0.6666E+01
  -4.468  0.7633E+00  0.6673E+01
  -4.458  0.7628E+00  0.6681E+01
  -4.448  0.7623E+00  0.6689E+01
  -4.438  0.7618E+00  0.6696E+01
  -4.428  0.7612E+00  0.6704E+01
  -4.418  0.7606E+00  0.6711E+01
  -4.408  0.7612E+00  0.6719E+01
  -4.398  0.7649E+00  0.6727E+01
  -4.388  0.7659E+00  0.6734E+01
  -4.378  0.7668E+00  0.6742E+01
  -4.368  0.7677E+00  0.6750E+01
  -4.358  0.7685E+00  0.6757E+01
  -4.348  0.7694E+00  0.6765E+01
  -4.338  0.7702E+00  0.6773E+01
  -4.328  0.7710E+00  0.6780E+01
  -4.318  0.7718E+00  0.6788E+01
  -4.308  0.7727E+00  0.6796E+01
  -4.298  0.7735E+00  0.6804E+01
  -4.288  0.7743E+00  0.6811E+01
  -4.278  0.7751E+00  0.6819E+01
  -4.268  0.7759E+00  0.6827E+01
  -4.258  0.7768E+00  0.6835E+01
  -4.248  0.7776E+00  0.6842E+01
  -4.238  0.7784E+00  0.6850E+01
  -4.228  0.7790E+00  0.6858E+01
  -4.218  0.7795E+00  0.6866E+01
  -4.208  0.7800E+00  0.6873E+01
  -4.198  0.7803E+00  0.6881E+01
  -4.188  0.7805E+00  0.6889E+01
  -4.178  0.7809E+00  0.6897E+01
  -4.168  0.7812E+00  0.6905E+01
  -4.158  0.7815E+00  0.6912E+01
  -4.148  0.7817E+00  0.6920E+01
  -4.138  0.7826E+00  0.6928E+01
  -4.128  0.7838E+00  0.6936E+01
  -4.118  0.7849E+00  0.6944E+01
  -4.108  0.7860E+00  0.6952E+01
  -4.098  0.7871E+00  0.6960E+01
  -4.088  0.7882E+00  0.6967E+01
  -4.078  0.7893E+00  0.6975E+01
  -4.068  0.7874E+00  0.6983E+01
  -4.058  0.7880E+00  0.6991E+01
  -4.048  0.7890E+00  0.6999E+01
  -4.038  0.7898E+00  0.7007E+01
  -4.028  0.7906E+00  0.7015E+01
  -4.018  0.7914E+00  0.7023E+01
  -4.008  0.7922E+00  0.7031E+01
  -3.998  0.7930E+00  0.7038E+01
  -3.988  0.7938E+00  0.7046E+01
  -3.978  0.7946E+00  0.7054E+01
  -3.968  0.7954E+00  0.7062E+01
  -3.958  0.7961E+00  0.7070E+01
  -3.948  0.7967E+00  0.7078E+01
  -3.938  0.7973E+00  0.7086E+01
  -3.928  0.7978E+00  0.7094E+01
  -3.918  0.7983E+00  0.7102E+01
  -3.908  0.7988E+00  0.7110E+01
  -3.898  0.7994E+00  0.7118E+01
  -3.888  0.7999E+00  0.7126E+01
  -3.878  0.8004E+00  0.7134E+01
  -3.868  0.8009E+00  0.7142E+01
  -3.858  0.8014E+00  0.7150E+01
  -3.848  0.8019E+00  0.7158E+01
  -3.838  0.8024E+00  0.7166E+01
  -3.828  0.8046E+00  0.7174E+01
  -3.818  0.8076E+00  0.7182E+01
  -3.808  0.8084E+00  0.7190E+01
  -3.798  0.8097E+00  0.7198E+01
  -3.788  0.8115E+00  0.7207E+01
  -3.778  0.8129E+00  0.7215E+01
  -3.768  0.8142E+00  0.7223E+01
  -3.758  0.8149E+00  0.7231E+01
  -3.748  0.8153E+00  0.7239E+01
  -3.738  0.8157E+00  0.7247E+01
  -3.728  0.8161E+00  0.7255E+01
  -3.718  0.8164E+00  0.7264E+01
  -3.708  0.8166E+00  0.7272E+01
  -3.698  0.8169E+00  0.7280E+01
  -3.688  0.8174E+00  0.7288E+01
  -3.678  0.8185E+00  0.7296E+01
  -3.668  0.8195E+00  0.7304E+01
  -3.658  0.8203E+00  0.7313E+01
  -3.648  0.8211E+00  0.7321E+01
  -3.638  0.8218E+00  0.7329E+01
  -3.628  0.8226E+00  0.7337E+01
  -3.618  0.8233E+00  0.7346E+01
  -3.608  0.8240E+00  0.7354E+01
  -3.598  0.8247E+00  0.7362E+01
  -3.588  0.8254E+00  0.7370E+01
  -3.578  0.8261E+00  0.7379E+01
  -3.568  0.8269E+00  0.7387E+01
  -3.558  0.8276E+00  0.7395E+01
  -3.548  0.8283E+00  0.7403E+01
  -3.538  0.8294E+00  0.7412E+01
  -3.528  0.8309E+00  0.7420E+01
  -3.518  0.8324E+00  0.7428E+01
  -3.508  0.8340E+00  0.7437E+01
  -3.498  0.8355E+00  0.7445E+01
  -3.488  0.8370E+00  0.7453E+01
  -3.478  0.8385E+00  0.7462E+01
  -3.468  0.8399E+00  0.7470E+01
  -3.458  0.8407E+00  0.7478E+01
  -3.448  0.8413E+00  0.7487E+01
  -3.438  0.8419E+00  0.7495E+01
  -3.428  0.8425E+00  0.7504E+01
  -3.418  0.8443E+00  0.7512E+01
  -3.408  0.8467E+00  0.7521E+01
  -3.398  0.8480E+00  0.7529E+01
  -3.388  0.8493E+00  0.7538E+01
  -3.378  0.8506E+00  0.7546E+01
  -3.368  0.8516E+00  0.7555E+01
  -3.358  0.8525E+00  0.7563E+01
  -3.348  0.8534E+00  0.7572E+01
  -3.338  0.8512E+00  0.7580E+01
  -3.328  0.8525E+00  0.7589E+01
  -3.318  0.8538E+00  0.7597E+01
  -3.308  0.8550E+00  0.7606E+01
  -3.298  0.8561E+00  0.7614E+01
  -3.288  0.8572E+00  0.7623E+01
  -3.278  0.8584E+00  0.7631E+01
  -3.268  0.8595E+00  0.7640E+01
  -3.258  0.8606E+00  0.7649E+01
  -3.248  0.8616E+00  0.7657E+01
  -3.238  0.8626E+00  0.7666E+01
  -3.228  0.8635E+00  0.7674E+01
  -3.218  0.8643E+00  0.7683E+01
  -3.208  0.8688E+00  0.7692E+01
  -3.198  0.8701E+00  0.7700E+01
  -3.188  0.8714E+00  0.7709E+01
  -3.178  0.8725E+00  0.7718E+01
  -3.168  0.8737E+00  0.7727E+01
  -3.158  0.8748E+00  0.7735E+01
  -3.148  0.8759E+00  0.7744E+01
  -3.138  0.8770E+00  0.7753E+01
  -3.128  0.8780E+00  0.7762E+01
  -3.118  0.8791E+00  0.7770E+01
  -3.108  0.8801E+00  0.7779E+01
  -3.098  0.8811E+00  0.7788E+01
  -3.088  0.8821E+00  0.7797E+01
  -3.078  0.8831E+00  0.7806E+01
  -3.068  0.8840E+00  0.7815E+01
  -3.058  0.8923E+00  0.7823E+01
  -3.048  0.9408E+00  0.7833E+01
  -3.038  0.9553E+00  0.7842E+01
  -3.028  0.9728E+00  0.7852E+01
  -3.018  0.9902E+00  0.7861E+01
  -3.008  0.9990E+00  0.7871E+01
  -2.998  0.1010E+01  0.7881E+01
  -2.988  0.1022E+01  0.7892E+01
  -2.978  0.1033E+01  0.7902E+01
  -2.968  0.1041E+01  0.7912E+01
  -2.958  0.1049E+01  0.7923E+01
  -2.948  0.1057E+01  0.7933E+01
  -2.938  0.1066E+01  0.7944E+01
  -2.928  0.1075E+01  0.7955E+01
  -2.918  0.1084E+01  0.7965E+01
  -2.908  0.1094E+01  0.7976E+01
  -2.898  0.1101E+01  0.7987E+01
  -2.888  0.1109E+01  0.7998E+01
  -2.878  0.1118E+01  0.8009E+01
  -2.868  0.1126E+01  0.8021E+01
  -2.858  0.1134E+01  0.8032E+01
  -2.848  0.1143E+01  0.8043E+01
  -2.838  0.1152E+01  0.8055E+01
  -2.828  0.1160E+01  0.8066E+01
  -2.818  0.1166E+01  0.8078E+01
  -2.808  0.1173E+01  0.8090E+01
  -2.798  0.1180E+01  0.8101E+01
  -2.788  0.1187E+01  0.8113E+01
  -2.778  0.1194E+01  0.8125E+01
  -2.768  0.1201E+01  0.8137E+01
  -2.758  0.1208E+01  0.8149E+01
  -2.748  0.1216E+01  0.8161E+01
  -2.738  0.1223E+01  0.8174E+01
  -2.728  0.1231E+01  0.8186E+01
  -2.718  0.1239E+01  0.8198E+01
  -2.708  0.1251E+01  0.8211E+01
  -2.698  0.1260E+01  0.8223E+01
  -2.688  0.1269E+01  0.8236E+01
  -2.678  0.1278E+01  0.8249E+01
  -2.668  0.1287E+01  0.8261E+01
  -2.658  0.1296E+01  0.8274E+01
  -2.648  0.1304E+01  0.8287E+01
  -2.638  0.1313E+01  0.8300E+01
  -2.628  0.1322E+01  0.8314E+01
  -2.618  0.1332E+01  0.8327E+01
  -2.608  0.1341E+01  0.8340E+01
  -2.598  0.1350E+01  0.8354E+01
  -2.588  0.1358E+01  0.8367E+01
  -2.578  0.1365E+01  0.8381E+01
  -2.568  0.1379E+01  0.8394E+01
  -2.558  0.1390E+01  0.8408E+01
  -2.548  0.1401E+01  0.8422E+01
  -2.538  0.1415E+01  0.8436E+01
  -2.528  0.1428E+01  0.8451E+01
  -2.518  0.1443E+01  0.8465E+01
  -2.508  0.1464E+01  0.8479E+01
  -2.498  0.1499E+01  0.8494E+01
  -2.488  0.1507E+01  0.8509E+01
  -2.478  0.1513E+01  0.8524E+01
  -2.468  0.1518E+01  0.8540E+01
  -2.458  0.1516E+01  0.8555E+01
  -2.448  0.1518E+01  0.8570E+01
  -2.438  0.1522E+01  0.8585E+01
  -2.428  0.1524E+01  0.8600E+01
  -2.418  0.1524E+01  0.8616E+01
  -2.408  0.1526E+01  0.8631E+01
  -2.398  0.1535E+01  0.8646E+01
  -2.388  0.1543E+01  0.8662E+01
  -2.378  0.1549E+01  0.8677E+01
  -2.368  0.1554E+01  0.8693E+01
  -2.358  0.1557E+01  0.8708E+01
  -2.348  0.1560E+01  0.8724E+01
  -2.338  0.1564E+01  0.8739E+01
  -2.328  0.1568E+01  0.8755E+01
  -2.318  0.1571E+01  0.8771E+01
  -2.308  0.1575E+01  0.8786E+01
  -2.298  0.1578E+01  0.8802E+01
  -2.288  0.1581E+01  0.8818E+01
  -2.278  0.1584E+01  0.8834E+01
  -2.268  0.1585E+01  0.8850E+01
  -2.258  0.1588E+01  0.8865E+01
  -2.248  0.1591E+01  0.8881E+01
  -2.238  0.1595E+01  0.8897E+01
  -2.228  0.1598E+01  0.8913E+01
  -2.218  0.1601E+01  0.8929E+01
  -2.208  0.1604E+01  0.8945E+01
  -2.198  0.1607E+01  0.8961E+01
  -2.188  0.1609E+01  0.8977E+01
  -2.178  0.1611E+01  0.8994E+01
  -2.168  0.1613E+01  0.9010E+01
  -2.158  0.1616E+01  0.9026E+01
  -2.148  0.1618E+01  0.9042E+01
  -2.138  0.1623E+01  0.9058E+01
  -2.128  0.1640E+01  0.9074E+01
  -2.118  0.1650E+01  0.9091E+01
  -2.108  0.1659E+01  0.9107E+01
  -2.098  0.1667E+01  0.9124E+01
  -2.088  0.1674E+01  0.9141E+01
  -2.078  0.1680E+01  0.9158E+01
  -2.068  0.1687E+01  0.9174E+01
  -2.058  0.1693E+01  0.9191E+01
  -2.048  0.1700E+01  0.9208E+01
  -2.038  0.1706E+01  0.9225E+01
  -2.028  0.1712E+01  0.9242E+01
  -2.018  0.1718E+01  0.9260E+01
  -2.008  0.1724E+01  0.9277E+01
  -1.998  0.1730E+01  0.9294E+01
  -1.988  0.1736E+01  0.9311E+01
  -1.978  0.1742E+01  0.9329E+01
  -1.968  0.1748E+01  0.9346E+01
  -1.958  0.1754E+01  0.9364E+01
  -1.948  0.1759E+01  0.9381E+01
  -1.938  0.1764E+01  0.9399E+01
  -1.928  0.1770E+01  0.9417E+01
  -1.918  0.1780E+01  0.9434E+01
  -1.908  0.1815E+01  0.9452E+01
  -1.898  0.1842E+01  0.9471E+01
  -1.888  0.1865E+01  0.9489E+01
  -1.878  0.1884E+01  0.9508E+01
  -1.868  0.1904E+01  0.9527E+01
  -1.858  0.1933E+01  0.9546E+01
  -1.848  0.1969E+01  0.9565E+01
  -1.838  0.2014E+01  0.9585E+01
  -1.828  0.2044E+01  0.9606E+01
  -1.818  0.2047E+01  0.9626E+01
  -1.808  0.2063E+01  0.9647E+01
  -1.798  0.2022E+01  0.9667E+01
  -1.788  0.2001E+01  0.9687E+01
  -1.778  0.1986E+01  0.9707E+01
  -1.768  0.1975E+01  0.9727E+01
  -1.758  0.1966E+01  0.9747E+01
  -1.748  0.1976E+01  0.9766E+01
  -1.738  0.2041E+01  0.9787E+01
  -1.728  0.2045E+01  0.9807E+01
  -1.718  0.2047E+01  0.9827E+01
  -1.708  0.2052E+01  0.9848E+01
  -1.698  0.2049E+01  0.9868E+01
  -1.688  0.2048E+01  0.9889E+01
  -1.678  0.2053E+01  0.9909E+01
  -1.668  0.2062E+01  0.9930E+01
  -1.658  0.2074E+01  0.9951E+01
  -1.648  0.2089E+01  0.9971E+01
  -1.638  0.2459E+01  0.9994E+01
  -1.628  0.2669E+01  0.1002E+02
  -1.618  0.2807E+01  0.1005E+02
  -1.608  0.2638E+01  0.1008E+02
  -1.598  0.2388E+01  0.1010E+02
  -1.588  0.2348E+01  0.1012E+02
  -1.578  0.2262E+01  0.1015E+02
  -1.568  0.2194E+01  0.1017E+02
  -1.558  0.2199E+01  0.1019E+02
  -1.548  0.2222E+01  0.1021E+02
  -1.538  0.2167E+01  0.1024E+02
  -1.528  0.2127E+01  0.1026E+02
  -1.518  0.2037E+01  0.1028E+02
  -1.508  0.2016E+01  0.1030E+02
  -1.498  0.2018E+01  0.1032E+02
  -1.488  0.2030E+01  0.1034E+02
  -1.478  0.2040E+01  0.1036E+02
  -1.468  0.2035E+01  0.1038E+02
  -1.458  0.2009E+01  0.1040E+02
  -1.448  0.1970E+01  0.1042E+02
  -1.438  0.1917E+01  0.1044E+02
  -1.428  0.1885E+01  0.1046E+02
  -1.418  0.1833E+01  0.1048E+02
  -1.408  0.1719E+01  0.1049E+02
  -1.398  0.1672E+01  0.1051E+02
  -1.388  0.1652E+01  0.1053E+02
  -1.378  0.1641E+01  0.1054E+02
  -1.368  0.1631E+01  0.1056E+02
  -1.358  0.1622E+01  0.1058E+02
  -1.348  0.1612E+01  0.1059E+02
  -1.338  0.1613E+01  0.1061E+02
  -1.328  0.1635E+01  0.1063E+02
  -1.318  0.1650E+01  0.1064E+02
  -1.308  0.1676E+01  0.1066E+02
  -1.298  0.1702E+01  0.1067E+02
  -1.288  0.1724E+01  0.1069E+02
  -1.278  0.1749E+01  0.1071E+02
  -1.268  0.2001E+01  0.1073E+02
  -1.258  0.1885E+01  0.1075E+02
  -1.248  0.1843E+01  0.1077E+02
  -1.238  0.1823E+01  0.1078E+02
  -1.228  0.1810E+01  0.1080E+02
  -1.218  0.1806E+01  0.1082E+02
  -1.208  0.1809E+01  0.1084E+02
  -1.198  0.1806E+01  0.1086E+02
  -1.188  0.1799E+01  0.1087E+02
  -1.178  0.1777E+01  0.1089E+02
  -1.168  0.1759E+01  0.1091E+02
  -1.158  0.1721E+01  0.1093E+02
  -1.148  0.1682E+01  0.1094E+02
  -1.138  0.1651E+01  0.1096E+02
  -1.128  0.1632E+01  0.1098E+02
  -1.118  0.1613E+01  0.1099E+02
  -1.108  0.1593E+01  0.1101E+02
  -1.098  0.1571E+01  0.1103E+02
  -1.088  0.1550E+01  0.1104E+02
  -1.078  0.1531E+01  0.1106E+02
  -1.068  0.1516E+01  0.1107E+02
  -1.058  0.1495E+01  0.1109E+02
  -1.048  0.1482E+01  0.1110E+02
  -1.038  0.1466E+01  0.1112E+02
  -1.028  0.1446E+01  0.1113E+02
  -1.018  0.1436E+01  0.1115E+02
  -1.008  0.1440E+01  0.1116E+02
  -0.998  0.1463E+01  0.1117E+02
  -0.988  0.1504E+01  0.1119E+02
  -0.978  0.1525E+01  0.1120E+02
  -0.968  0.1544E+01  0.1122E+02
  -0.958  0.1554E+01  0.1124E+02
  -0.948  0.1567E+01  0.1125E+02
  -0.938  0.1547E+01  0.1127E+02
  -0.928  0.1525E+01  0.1128E+02
  -0.918  0.1503E+01  0.1130E+02
  -0.908  0.1479E+01  0.1131E+02
  -0.898  0.1467E+01  0.1133E+02
  -0.888  0.1458E+01  0.1134E+02
  -0.878  0.1451E+01  0.1136E+02
  -0.868  0.1445E+01  0.1137E+02
  -0.858  0.1439E+01  0.1138E+02
  -0.848  0.1434E+01  0.1140E+02
  -0.838  0.1433E+01  0.1141E+02
  -0.828  0.1439E+01  0.1143E+02
  -0.818  0.1432E+01  0.1144E+02
  -0.808  0.1433E+01  0.1146E+02
  -0.798  0.1436E+01  0.1147E+02
  -0.788  0.1443E+01  0.1149E+02
  -0.778  0.1459E+01  0.1150E+02
  -0.768  0.1489E+01  0.1151E+02
  -0.758  0.1401E+01  0.1153E+02
  -0.748  0.1371E+01  0.1154E+02
  -0.738  0.1360E+01  0.1156E+02
  -0.728  0.1352E+01  0.1157E+02
  -0.718  0.1342E+01  0.1158E+02
  -0.708  0.1335E+01  0.1160E+02
  -0.698  0.1329E+01  0.1161E+02
  -0.688  0.1325E+01  0.1162E+02
  -0.678  0.1324E+01  0.1164E+02
  -0.668  0.1324E+01  0.1165E+02
  -0.658  0.1328E+01  0.1166E+02
  -0.648  0.1333E+01  0.1168E+02
  -0.638  0.1341E+01  0.1169E+02
  -0.628  0.1367E+01  0.1170E+02
  -0.618  0.1395E+01  0.1172E+02
  -0.608  0.1422E+01  0.1173E+02
  -0.598  0.1448E+01  0.1175E+02
  -0.588  0.1480E+01  0.1176E+02
  -0.578  0.1504E+01  0.1178E+02
  -0.568  0.1434E+01  0.1179E+02
  -0.558  0.1381E+01  0.1180E+02
  -0.548  0.1357E+01  0.1182E+02
  -0.538  0.1338E+01  0.1183E+02
  -0.528  0.1323E+01  0.1184E+02
  -0.518  0.1315E+01  0.1186E+02
  -0.508  0.1313E+01  0.1187E+02
  -0.498  0.1315E+01  0.1188E+02
  -0.488  0.1319E+01  0.1190E+02
  -0.478  0.1324E+01  0.1191E+02
  -0.468  0.1330E+01  0.1192E+02
  -0.458  0.1340E+01  0.1194E+02
  -0.448  0.1352E+01  0.1195E+02
  -0.438  0.1375E+01  0.1196E+02
  -0.428  0.1396E+01  0.1198E+02
  -0.418  0.1410E+01  0.1199E+02
  -0.408  0.1421E+01  0.1201E+02
  -0.398  0.1427E+01  0.1202E+02
  -0.388  0.1426E+01  0.1203E+02
  -0.378  0.1413E+01  0.1205E+02
  -0.368  0.1356E+01  0.1206E+02
  -0.358  0.1329E+01  0.1208E+02
  -0.348  0.1320E+01  0.1209E+02
  -0.338  0.1316E+01  0.1210E+02
  -0.328  0.1314E+01  0.1212E+02
  -0.318  0.1312E+01  0.1213E+02
  -0.308  0.1311E+01  0.1214E+02
  -0.298  0.1308E+01  0.1215E+02
  -0.288  0.1306E+01  0.1217E+02
  -0.278  0.1302E+01  0.1218E+02
  -0.268  0.1300E+01  0.1219E+02
  -0.258  0.1297E+01  0.1221E+02
  -0.248  0.1295E+01  0.1222E+02
  -0.238  0.1293E+01  0.1223E+02
  -0.228  0.1290E+01  0.1225E+02
  -0.218  0.1288E+01  0.1226E+02
  -0.208  0.1286E+01  0.1227E+02
  -0.198  0.1284E+01  0.1228E+02
  -0.188  0.1281E+01  0.1230E+02
  -0.178  0.1279E+01  0.1231E+02
  -0.168  0.1277E+01  0.1232E+02
  -0.158  0.1275E+01  0.1234E+02
  -0.148  0.1272E+01  0.1235E+02
  -0.138  0.1270E+01  0.1236E+02
  -0.128  0.1268E+01  0.1237E+02
  -0.118  0.1266E+01  0.1239E+02
  -0.108  0.1263E+01  0.1240E+02
  -0.098  0.1261E+01  0.1241E+02
  -0.088  0.1259E+01  0.1242E+02
  -0.078  0.1257E+01  0.1244E+02
  -0.068  0.1254E+01  0.1245E+02
  -0.058  0.1252E+01  0.1246E+02
  -0.048  0.1250E+01  0.1247E+02
  -0.038  0.1248E+01  0.1249E+02
  -0.028  0.1249E+01  0.1250E+02
  -0.018  0.1248E+01  0.1251E+02
  -0.008  0.1248E+01  0.1252E+02
   0.002  0.1247E+01  0.1254E+02
   0.012  0.1245E+01  0.1255E+02
   0.022  0.1244E+01  0.1256E+02
   0.032  0.1242E+01  0.1257E+02
   0.042  0.1240E+01  0.1259E+02
   0.052  0.1239E+01  0.1260E+02
   0.062  0.1237E+01  0.1261E+02
   0.072  0.1236E+01  0.1262E+02
   0.082  0.1233E+01  0.1264E+02
   0.092  0.1231E+01  0.1265E+02
   0.102  0.1229E+01  0.1266E+02
   0.112  0.1227E+01  0.1267E+02
   0.122  0.1225E+01  0.1269E+02
   0.132  0.1223E+01  0.1270E+02
   0.142  0.1221E+01  0.1271E+02
   0.152  0.1219E+01  0.1272E+02
   0.162  0.1217E+01  0.1273E+02
   0.172  0.1215E+01  0.1275E+02
   0.182  0.1213E+01  0.1276E+02
   0.192  0.1211E+01  0.1277E+02
   0.202  0.1209E+01  0.1278E+02
   0.212  0.1207E+01  0.1279E+02
   0.222  0.1205E+01  0.1281E+02
   0.232  0.1202E+01  0.1282E+02
   0.242  0.1201E+01  0.1283E+02
   0.252  0.1203E+01  0.1284E+02
   0.262  0.1204E+01  0.1285E+02
   0.272  0.1203E+01  0.1287E+02
   0.282  0.1203E+01  0.1288E+02
   0.292  0.1204E+01  0.1289E+02
   0.302  0.1204E+01  0.1290E+02
   0.312  0.1202E+01  0.1291E+02
   0.322  0.1200E+01  0.1293E+02
   0.332  0.1198E+01  0.1294E+02
   0.342  0.1196E+01  0.1295E+02
   0.352  0.1194E+01  0.1296E+02
   0.362  0.1192E+01  0.1297E+02
   0.372  0.1190E+01  0.1299E+02
   0.382  0.1188E+01  0.1300E+02
   0.392  0.1186E+01  0.1301E+02
   0.402  0.1184E+01  0.1302E+02
   0.412  0.1182E+01  0.1303E+02
   0.422  0.1180E+01  0.1305E+02
   0.432  0.1178E+01  0.1306E+02
   0.442  0.1176E+01  0.1307E+02
   0.452  0.1174E+01  0.1308E+02
   0.462  0.1173E+01  0.1309E+02
   0.472  0.1171E+01  0.1310E+02
   0.482  0.1169E+01  0.1312E+02
   0.492  0.1167E+01  0.1313E+02
   0.502  0.1166E+01  0.1314E+02
   0.512  0.1169E+01  0.1315E+02
   0.522  0.1172E+01  0.1316E+02
   0.532  0.1177E+01  0.1317E+02
   0.542  0.1175E+01  0.1319E+02
   0.552  0.1173E+01  0.1320E+02
   0.562  0.1171E+01  0.1321E+02
   0.572  0.1169E+01  0.1322E+02
   0.582  0.1167E+01  0.1323E+02
   0.592  0.1165E+01  0.1325E+02
   0.602  0.1163E+01  0.1326E+02
   0.612  0.1161E+01  0.1327E+02
   0.622  0.1159E+01  0.1328E+02
   0.632  0.1157E+01  0.1329E+02
   0.642  0.1156E+01  0.1330E+02
   0.652  0.1154E+01  0.1331E+02
   0.662  0.1152E+01  0.1333E+02
   0.672  0.1150E+01  0.1334E+02
   0.682  0.1149E+01  0.1335E+02
   0.692  0.1147E+01  0.1336E+02
   0.702  0.1145E+01  0.1337E+02
   0.712  0.1144E+01  0.1338E+02
   0.722  0.1143E+01  0.1339E+02
   0.732  0.1142E+01  0.1341E+02
   0.742  0.1142E+01  0.1342E+02
   0.752  0.1141E+01  0.1343E+02
   0.762  0.1155E+01  0.1344E+02
   0.772  0.1153E+01  0.1345E+02
   0.782  0.1151E+01  0.1346E+02
   0.792  0.1149E+01  0.1348E+02
   0.802  0.1147E+01  0.1349E+02
   0.812  0.1145E+01  0.1350E+02
   0.822  0.1144E+01  0.1351E+02
   0.832  0.1142E+01  0.1352E+02
   0.842  0.1140E+01  0.1353E+02
   0.852  0.1138E+01  0.1354E+02
   0.862  0.1136E+01  0.1356E+02
   0.872  0.1134E+01  0.1357E+02
   0.882  0.1133E+01  0.1358E+02
   0.892  0.1131E+01  0.1359E+02
   0.902  0.1129E+01  0.1360E+02
   0.912  0.1128E+01  0.1361E+02
   0.922  0.1126E+01  0.1362E+02
   0.932  0.1124E+01  0.1363E+02
   0.942  0.1123E+01  0.1365E+02
   0.952  0.1123E+01  0.1366E+02
   0.962  0.1124E+01  0.1367E+02
   0.972  0.1124E+01  0.1368E+02
   0.982  0.1137E+01  0.1369E+02
   0.992  0.1135E+01  0.1370E+02
   1.002  0.1134E+01  0.1371E+02
   1.012  0.1132E+01  0.1372E+02
   1.022  0.1130E+01  0.1374E+02
   1.032  0.1130E+01  0.1375E+02
   1.042  0.1128E+01  0.1376E+02
   1.052  0.1126E+01  0.1377E+02
   1.062  0.1124E+01  0.1378E+02
   1.072  0.1122E+01  0.1379E+02
   1.082  0.1120E+01  0.1380E+02
   1.092  0.1118E+01  0.1381E+02
   1.102  0.1117E+01  0.1383E+02
   1.112  0.1115E+01  0.1384E+02
   1.122  0.1114E+01  0.1385E+02
   1.132  0.1112E+01  0.1386E+02
   1.142  0.1111E+01  0.1387E+02
   1.152  0.1112E+01  0.1388E+02
   1.162  0.1113E+01  0.1389E+02
   1.172  0.1114E+01  0.1390E+02
   1.182  0.1126E+01  0.1391E+02
   1.192  0.1124E+01  0.1393E+02
   1.202  0.1122E+01  0.1394E+02
   1.212  0.1120E+01  0.1395E+02
   1.222  0.1117E+01  0.1396E+02
   1.232  0.1115E+01  0.1397E+02
   1.242  0.1113E+01  0.1398E+02
   1.252  0.1112E+01  0.1399E+02
   1.262  0.1112E+01  0.1400E+02
   1.272  0.1112E+01  0.1402E+02
   1.282  0.1112E+01  0.1403E+02
   1.292  0.1111E+01  0.1404E+02
   1.302  0.1110E+01  0.1405E+02
   1.312  0.1108E+01  0.1406E+02
   1.322  0.1106E+01  0.1407E+02
   1.332  0.1107E+01  0.1408E+02
   1.342  0.1110E+01  0.1409E+02
   1.352  0.1113E+01  0.1410E+02
   1.362  0.1121E+01  0.1412E+02
   1.372  0.1117E+01  0.1413E+02
   1.382  0.1114E+01  0.1414E+02
   1.392  0.1111E+01  0.1415E+02
   1.402  0.1109E+01  0.1416E+02
   1.412  0.1107E+01  0.1417E+02
   1.422  0.1105E+01  0.1418E+02
   1.432  0.1103E+01  0.1419E+02
   1.442  0.1102E+01  0.1420E+02
   1.452  0.1102E+01  0.1422E+02
   1.462  0.1102E+01  0.1423E+02
   1.472  0.1102E+01  0.1424E+02
   1.482  0.1111E+01  0.1425E+02
   1.492  0.1116E+01  0.1426E+02
   1.502  0.1129E+01  0.1427E+02
   1.512  0.1126E+01  0.1428E+02
   1.522  0.1121E+01  0.1429E+02
   1.532  0.1116E+01  0.1430E+02
   1.542  0.1111E+01  0.1432E+02
   1.552  0.1107E+01  0.1433E+02
   1.562  0.1102E+01  0.1434E+02
   1.572  0.1097E+01  0.1435E+02
   1.582  0.1096E+01  0.1436E+02
   1.592  0.1097E+01  0.1437E+02
   1.602  0.1098E+01  0.1438E+02
   1.612  0.1106E+01  0.1439E+02
   1.622  0.1131E+01  0.1440E+02
   1.632  0.1131E+01  0.1442E+02
   1.642  0.1130E+01  0.1443E+02
   1.652  0.1122E+01  0.1444E+02
   1.662  0.1111E+01  0.1445E+02
   1.672  0.1101E+01  0.1446E+02
   1.682  0.1092E+01  0.1447E+02
   1.692  0.1111E+01  0.1448E+02
   1.702  0.1130E+01  0.1449E+02
   1.712  0.1114E+01  0.1450E+02
   1.722  0.1092E+01  0.1452E+02
   1.732  0.1176E+01  0.1453E+02
   1.742  0.1100E+01  0.1454E+02
   1.752  0.1178E+01  0.1455E+02
   1.762  0.9307E+00  0.1456E+02
   1.772  0.6991E+00  0.1457E+02
   1.782  0.6976E+00  0.1457E+02
   1.792  0.6995E+00  0.1458E+02
   1.802  0.7015E+00  0.1459E+02
   1.812  0.7035E+00  0.1460E+02
   1.822  0.7055E+00  0.1460E+02
   1.832  0.7076E+00  0.1461E+02
   1.842  0.7098E+00  0.1462E+02
   1.852  0.7120E+00  0.1462E+02
   1.862  0.7142E+00  0.1463E+02
   1.872  0.7166E+00  0.1464E+02
   1.882  0.7189E+00  0.1465E+02
   1.892  0.7213E+00  0.1465E+02
   1.902  0.7237E+00  0.1466E+02
   1.912  0.7262E+00  0.1467E+02
   1.922  0.7287E+00  0.1467E+02
   1.932  0.7312E+00  0.1468E+02
   1.942  0.7338E+00  0.1469E+02
   1.952  0.7365E+00  0.1470E+02
   1.962  0.7392E+00  0.1470E+02
   1.972  0.7421E+00  0.1471E+02
   1.982  0.7451E+00  0.1472E+02
   1.992  0.7482E+00  0.1473E+02
   2.002  0.7514E+00  0.1473E+02
   2.012  0.7546E+00  0.1474E+02
   2.022  0.7579E+00  0.1475E+02
   2.032  0.7614E+00  0.1476E+02
   2.042  0.7649E+00  0.1476E+02
   2.052  0.7685E+00  0.1477E+02
   2.062  0.7723E+00  0.1478E+02
   2.072  0.7762E+00  0.1479E+02
   2.082  0.7802E+00  0.1479E+02
   2.092  0.7843E+00  0.1480E+02
   2.102  0.7885E+00  0.1481E+02
   2.112  0.7929E+00  0.1482E+02
   2.122  0.7974E+00  0.1483E+02
   2.132  0.8022E+00  0.1483E+02
   2.142  0.8073E+00  0.1484E+02
   2.152  0.8125E+00  0.1485E+02
   2.162  0.8180E+00  0.1486E+02
   2.172  0.8236E+00  0.1487E+02
   2.182  0.8295E+00  0.1488E+02
   2.192  0.8355E+00  0.1488E+02
   2.202  0.8418E+00  0.1489E+02
   2.212  0.8483E+00  0.1490E+02
   2.222  0.8551E+00  0.1491E+02
   2.232  0.8625E+00  0.1492E+02
   2.242  0.8706E+00  0.1493E+02
   2.252  0.8792E+00  0.1493E+02
   2.262  0.8885E+00  0.1494E+02
   2.272  0.8982E+00  0.1495E+02
   2.282  0.9083E+00  0.1496E+02
   2.292  0.9189E+00  0.1497E+02
   2.302  0.9305E+00  0.1498E+02
   2.312  0.9441E+00  0.1499E+02
   2.322  0.9596E+00  0.1500E+02
   2.332  0.9768E+00  0.1501E+02
   2.342  0.9957E+00  0.1502E+02
   2.352  0.1020E+01  0.1503E+02
   2.362  0.1048E+01  0.1504E+02
   2.372  0.1080E+01  0.1505E+02
   2.382  0.1171E+01  0.1506E+02
   2.392  0.1145E+01  0.1507E+02
   2.402  0.1141E+01  0.1508E+02
   2.412  0.1136E+01  0.1510E+02
   2.422  0.1128E+01  0.1511E+02
   2.432  0.1136E+01  0.1512E+02
   2.442  0.1153E+01  0.1513E+02
   2.452  0.1156E+01  0.1514E+02
   2.462  0.1159E+01  0.1515E+02
   2.472  0.1161E+01  0.1516E+02
   2.482  0.1162E+01  0.1518E+02
   2.492  0.1163E+01  0.1519E+02
   2.502  0.1163E+01  0.1520E+02
   2.512  0.1163E+01  0.1521E+02
   2.522  0.1163E+01  0.1522E+02
   2.532  0.1163E+01  0.1523E+02
   2.542  0.1163E+01  0.1525E+02
   2.552  0.1200E+01  0.1526E+02
   2.562  0.1036E+01  0.1527E+02
   2.572  0.9931E+00  0.1528E+02
   2.582  0.9565E+00  0.1529E+02
   2.592  0.9300E+00  0.1530E+02
   2.602  0.9102E+00  0.1531E+02
   2.612  0.8913E+00  0.1532E+02
   2.622  0.8713E+00  0.1532E+02
   2.632  0.8462E+00  0.1533E+02
   2.642  0.8409E+00  0.1534E+02
   2.652  0.8332E+00  0.1535E+02
   2.662  0.8226E+00  0.1536E+02
   2.672  0.8119E+00  0.1537E+02
   2.682  0.7978E+00  0.1537E+02
   2.692  0.7806E+00  0.1538E+02
   2.702  0.7652E+00  0.1539E+02
   2.712  0.7533E+00  0.1540E+02
   2.722  0.7416E+00  0.1541E+02
   2.732  0.7306E+00  0.1541E+02
   2.742  0.7201E+00  0.1542E+02
   2.752  0.7099E+00  0.1543E+02
   2.762  0.6996E+00  0.1543E+02
   2.772  0.6883E+00  0.1544E+02
   2.782  0.6769E+00  0.1545E+02
   2.792  0.6716E+00  0.1545E+02
   2.802  0.6661E+00  0.1546E+02
   2.812  0.6604E+00  0.1547E+02
   2.822  0.6531E+00  0.1547E+02
   2.832  0.6422E+00  0.1548E+02
   2.842  0.6332E+00  0.1549E+02
   2.852  0.6245E+00  0.1549E+02
   2.862  0.6166E+00  0.1550E+02
   2.872  0.6095E+00  0.1551E+02
   2.882  0.6031E+00  0.1551E+02
   2.892  0.5978E+00  0.1552E+02
   2.902  0.5936E+00  0.1552E+02
   2.912  0.5888E+00  0.1553E+02
   2.922  0.5837E+00  0.1554E+02
   2.932  0.5783E+00  0.1554E+02
   2.942  0.5726E+00  0.1555E+02
   2.952  0.5667E+00  0.1555E+02
   2.962  0.5603E+00  0.1556E+02
   2.972  0.5535E+00  0.1556E+02
   2.982  0.5464E+00  0.1557E+02
   2.992  0.5391E+00  0.1558E+02
   3.002  0.5307E+00  0.1558E+02
   3.012  0.5267E+00  0.1559E+02
   3.022  0.5228E+00  0.1559E+02
   3.032  0.5187E+00  0.1560E+02
   3.042  0.5146E+00  0.1560E+02
   3.052  0.5104E+00  0.1561E+02
   3.062  0.5061E+00  0.1561E+02
   3.072  0.5016E+00  0.1562E+02
   3.082  0.4971E+00  0.1562E+02
   3.092  0.4923E+00  0.1563E+02
   3.102  0.4871E+00  0.1563E+02
   3.112  0.4819E+00  0.1564E+02
   3.122  0.4748E+00  0.1564E+02
   3.132  0.4681E+00  0.1565E+02
   3.142  0.4627E+00  0.1565E+02
   3.152  0.4583E+00  0.1566E+02
   3.162  0.4549E+00  0.1566E+02
   3.172  0.4515E+00  0.1566E+02
   3.182  0.4480E+00  0.1567E+02
   3.192  0.4445E+00  0.1567E+02
   3.202  0.4411E+00  0.1568E+02
   3.212  0.4377E+00  0.1568E+02
   3.222  0.4343E+00  0.1569E+02
   3.232  0.4306E+00  0.1569E+02
   3.242  0.4267E+00  0.1569E+02
   3.252  0.4226E+00  0.1570E+02
   3.262  0.4183E+00  0.1570E+02
   3.272  0.4139E+00  0.1571E+02
   3.282  0.4093E+00  0.1571E+02
   3.292  0.4042E+00  0.1572E+02
   3.302  0.3993E+00  0.1572E+02
   3.312  0.3959E+00  0.1572E+02
   3.322  0.3923E+00  0.1573E+02
   3.332  0.3889E+00  0.1573E+02
   3.342  0.3857E+00  0.1574E+02
   3.352  0.3826E+00  0.1574E+02
   3.362  0.3794E+00  0.1574E+02
   3.372  0.3762E+00  0.1575E+02
   3.382  0.3731E+00  0.1575E+02
   3.392  0.3698E+00  0.1575E+02
   3.402  0.3665E+00  0.1576E+02
   3.412  0.3631E+00  0.1576E+02
   3.422  0.3596E+00  0.1577E+02
   3.432  0.3557E+00  0.1577E+02
   3.442  0.3520E+00  0.1577E+02
   3.452  0.3483E+00  0.1578E+02
   3.462  0.3448E+00  0.1578E+02
   3.472  0.3416E+00  0.1578E+02
   3.482  0.3386E+00  0.1579E+02
   3.492  0.3344E+00  0.1579E+02
   3.502  0.3307E+00  0.1579E+02
   3.512  0.3275E+00  0.1580E+02
   3.522  0.3246E+00  0.1580E+02
   3.532  0.3216E+00  0.1580E+02
   3.542  0.3186E+00  0.1581E+02
   3.552  0.3157E+00  0.1581E+02
   3.562  0.3129E+00  0.1581E+02
   3.572  0.3101E+00  0.1582E+02
   3.582  0.3073E+00  0.1582E+02
   3.592  0.3045E+00  0.1582E+02
   3.602  0.3018E+00  0.1582E+02
   3.612  0.2990E+00  0.1583E+02
   3.622  0.2961E+00  0.1583E+02
   3.632  0.2930E+00  0.1583E+02
   3.642  0.2898E+00  0.1584E+02
   3.652  0.2864E+00  0.1584E+02
   3.662  0.2824E+00  0.1584E+02
   3.672  0.2794E+00  0.1584E+02
   3.682  0.2769E+00  0.1585E+02
   3.692  0.2743E+00  0.1585E+02
   3.702  0.2717E+00  0.1585E+02
   3.712  0.2689E+00  0.1586E+02
   3.722  0.2660E+00  0.1586E+02
   3.732  0.2631E+00  0.1586E+02
   3.742  0.2604E+00  0.1586E+02
   3.752  0.2578E+00  0.1587E+02
   3.762  0.2551E+00  0.1587E+02
   3.772  0.2525E+00  0.1587E+02
   3.782  0.2498E+00  0.1587E+02
   3.792  0.2471E+00  0.1588E+02
   3.802  0.2444E+00  0.1588E+02
   3.812  0.2417E+00  0.1588E+02
   3.822  0.2387E+00  0.1588E+02
   3.832  0.2357E+00  0.1589E+02
   3.842  0.2328E+00  0.1589E+02
   3.852  0.2300E+00  0.1589E+02
   3.862  0.2273E+00  0.1589E+02
   3.872  0.2247E+00  0.1590E+02
   3.882  0.2223E+00  0.1590E+02
   3.892  0.2202E+00  0.1590E+02
   3.902  0.2184E+00  0.1590E+02
   3.912  0.2164E+00  0.1590E+02
   3.922  0.2145E+00  0.1591E+02
   3.932  0.2103E+00  0.1591E+02
   3.942  0.2073E+00  0.1591E+02
   3.952  0.2045E+00  0.1591E+02
   3.962  0.2019E+00  0.1591E+02
   3.972  0.1993E+00  0.1592E+02
   3.982  0.1969E+00  0.1592E+02
   3.992  0.1944E+00  0.1592E+02
   4.002  0.1920E+00  0.1592E+02
   4.012  0.1896E+00  0.1592E+02
   4.022  0.1872E+00  0.1593E+02
   4.032  0.1849E+00  0.1593E+02
   4.042  0.1827E+00  0.1593E+02
   4.052  0.1804E+00  0.1593E+02
   4.062  0.1781E+00  0.1593E+02
   4.072  0.1755E+00  0.1594E+02
   4.082  0.1729E+00  0.1594E+02
   4.092  0.1701E+00  0.1594E+02
   4.102  0.1667E+00  0.1594E+02
   4.112  0.1648E+00  0.1594E+02
   4.122  0.1628E+00  0.1594E+02
   4.132  0.1607E+00  0.1595E+02
   4.142  0.1585E+00  0.1595E+02
   4.152  0.1563E+00  0.1595E+02
   4.162  0.1540E+00  0.1595E+02
   4.172  0.1517E+00  0.1595E+02
   4.182  0.1493E+00  0.1595E+02
   4.192  0.1468E+00  0.1595E+02
   4.202  0.1442E+00  0.1596E+02
   4.212  0.1417E+00  0.1596E+02
   4.222  0.1394E+00  0.1596E+02
   4.232  0.1370E+00  0.1596E+02
   4.242  0.1347E+00  0.1596E+02
   4.252  0.1323E+00  0.1596E+02
   4.262  0.1298E+00  0.1596E+02
   4.272  0.1273E+00  0.1597E+02
   4.282  0.1248E+00  0.1597E+02
   4.292  0.1223E+00  0.1597E+02
   4.302  0.1200E+00  0.1597E+02
   4.312  0.1177E+00  0.1597E+02
   4.322  0.1155E+00  0.1597E+02
   4.332  0.1133E+00  0.1597E+02
   4.342  0.1113E+00  0.1597E+02
   4.352  0.1094E+00  0.1597E+02
   4.362  0.1077E+00  0.1598E+02
   4.372  0.1062E+00  0.1598E+02
   4.382  0.1048E+00  0.1598E+02
   4.392  0.1033E+00  0.1598E+02
   4.402  0.1019E+00  0.1598E+02
   4.412  0.9851E-01  0.1598E+02
   4.422  0.9595E-01  0.1598E+02
   4.432  0.9345E-01  0.1598E+02
   4.442  0.9096E-01  0.1598E+02
   4.452  0.8842E-01  0.1599E+02
   4.462  0.8586E-01  0.1599E+02
   4.472  0.8324E-01  0.1599E+02
   4.482  0.8057E-01  0.1599E+02
   4.492  0.7783E-01  0.1599E+02
   4.502  0.7505E-01  0.1599E+02
   4.512  0.7223E-01  0.1599E+02
   4.522  0.6943E-01  0.1599E+02
   4.532  0.6663E-01  0.1599E+02
   4.542  0.6384E-01  0.1599E+02
   4.552  0.6103E-01  0.1599E+02
   4.562  0.5819E-01  0.1599E+02
   4.572  0.5526E-01  0.1599E+02
   4.582  0.5193E-01  0.1599E+02
   4.592  0.4915E-01  0.1599E+02
   4.602  0.4665E-01  0.1600E+02
   4.612  0.4415E-01  0.1600E+02
   4.622  0.4165E-01  0.1600E+02
   4.632  0.3916E-01  0.1600E+02
   4.642  0.3666E-01  0.1600E+02
   4.652  0.3416E-01  0.1600E+02
   4.662  0.3166E-01  0.1600E+02
   4.672  0.2916E-01  0.1600E+02
   4.682  0.2666E-01  0.1600E+02
   4.692  0.2433E-01  0.1600E+02
   4.702  0.2218E-01  0.1600E+02
   4.712  0.2015E-01  0.1600E+02
   4.722  0.1821E-01  0.1600E+02
   4.732  0.1635E-01  0.1600E+02
   4.742  0.1455E-01  0.1600E+02
   4.752  0.1282E-01  0.1600E+02
   4.762  0.1114E-01  0.1600E+02
   4.772  0.9516E-02  0.1600E+02
   4.782  0.7940E-02  0.1600E+02
   4.792  0.6408E-02  0.1600E+02
   4.802  0.4921E-02  0.1600E+02
   4.812  0.3477E-02  0.1600E+02
   4.822  0.2073E-02  0.1600E+02
   4.832  0.7071E-03  0.1600E+02
   4.842  0.5583E-03  0.1600E+02
   4.852  0.1813E-02  0.1600E+02
   4.862  0.3109E-02  0.1600E+02
   4.872  0.4449E-02  0.1600E+02
   4.882  0.5834E-02  0.1600E+02
   4.892  0.7264E-02  0.1600E+02
   4.902  0.8740E-02  0.1600E+02
   4.912  0.1027E-01  0.1600E+02
   4.922  0.1185E-01  0.1600E+02
   4.932  0.1349E-01  0.1600E+02
   4.942  0.1520E-01  0.1600E+02
   4.952  0.1697E-01  0.1600E+02
   4.962  0.1883E-01  0.1600E+02
   4.972  0.2077E-01  0.1600E+02
   4.982  0.2282E-01  0.1600E+02
   4.992  0.2502E-01  0.1600E+02
   5.002  0.2748E-01  0.1600E+02
   5.012  0.3005E-01  0.1600E+02
   5.022  0.3262E-01  0.1600E+02
   5.032  0.3519E-01  0.1600E+02
   5.042  0.3776E-01  0.1600E+02
   5.052  0.4033E-01  0.1600E+02
   5.062  0.4290E-01  0.1600E+02
   5.072  0.4547E-01  0.1600E+02
   5.082  0.4804E-01  0.1601E+02
   5.092  0.5062E-01  0.1601E+02
   5.102  0.5319E-01  0.1601E+02
   5.112  0.5631E-01  0.1601E+02
   5.122  0.6035E-01  0.1601E+02
   5.132  0.6383E-01  0.1601E+02
   5.142  0.6721E-01  0.1601E+02
   5.152  0.7056E-01  0.1601E+02
   5.162  0.7392E-01  0.1601E+02
   5.172  0.7731E-01  0.1601E+02
   5.182  0.8064E-01  0.1601E+02
   5.192  0.8387E-01  0.1601E+02
   5.202  0.8701E-01  0.1601E+02
   5.212  0.9006E-01  0.1601E+02
   5.222  0.9307E-01  0.1601E+02
   5.232  0.9606E-01  0.1602E+02
   5.242  0.9914E-01  0.1602E+02
   5.252  0.1029E+00  0.1602E+02
   5.262  0.1044E+00  0.1602E+02
   5.272  0.1059E+00  0.1602E+02
   5.282  0.1074E+00  0.1602E+02
   5.292  0.1089E+00  0.1602E+02
   5.302  0.1103E+00  0.1602E+02
   5.312  0.1118E+00  0.1602E+02
   5.322  0.1133E+00  0.1603E+02
   5.332  0.1148E+00  0.1603E+02
   5.342  0.1164E+00  0.1603E+02
   5.352  0.1186E+00  0.1603E+02
   5.362  0.1211E+00  0.1603E+02
   5.372  0.1238E+00  0.1603E+02
   5.382  0.1267E+00  0.1603E+02
   5.392  0.1297E+00  0.1603E+02
   5.402  0.1330E+00  0.1604E+02
   5.412  0.1364E+00  0.1604E+02
   5.422  0.1403E+00  0.1604E+02
   5.432  0.1443E+00  0.1604E+02
   5.442  0.1482E+00  0.1604E+02
   5.452  0.1519E+00  0.1604E+02
   5.462  0.1552E+00  0.1604E+02
   5.472  0.1584E+00  0.1605E+02
   5.482  0.1614E+00  0.1605E+02
   5.492  0.1642E+00  0.1605E+02
   5.502  0.1669E+00  0.1605E+02
   5.512  0.1694E+00  0.1605E+02
   5.522  0.1718E+00  0.1605E+02
   5.532  0.1740E+00  0.1606E+02
   5.542  0.1759E+00  0.1606E+02
   5.552  0.1777E+00  0.1606E+02
   5.562  0.1792E+00  0.1606E+02
   5.572  0.1805E+00  0.1606E+02
   5.582  0.1816E+00  0.1606E+02
   5.592  0.1828E+00  0.1607E+02
   5.602  0.1876E+00  0.1607E+02
   5.612  0.1919E+00  0.1607E+02
   5.622  0.1960E+00  0.1607E+02
   5.632  0.2003E+00  0.1607E+02
   5.642  0.2050E+00  0.1608E+02
   5.652  0.2104E+00  0.1608E+02
   5.662  0.2194E+00  0.1608E+02
   5.672  0.2221E+00  0.1608E+02
   5.682  0.2247E+00  0.1608E+02
   5.692  0.2273E+00  0.1609E+02
   5.702  0.2299E+00  0.1609E+02
   5.712  0.2326E+00  0.1609E+02
   5.722  0.2350E+00  0.1609E+02
   5.732  0.2374E+00  0.1610E+02
   5.742  0.2397E+00  0.1610E+02
   5.752  0.2420E+00  0.1610E+02
   5.762  0.2442E+00  0.1610E+02
   5.772  0.2461E+00  0.1611E+02
   5.782  0.2478E+00  0.1611E+02
   5.792  0.2504E+00  0.1611E+02
   5.802  0.2574E+00  0.1611E+02
   5.812  0.2647E+00  0.1612E+02
   5.822  0.2718E+00  0.1612E+02
   5.832  0.2788E+00  0.1612E+02
   5.842  0.2857E+00  0.1612E+02
   5.852  0.2921E+00  0.1613E+02
   5.862  0.2964E+00  0.1613E+02
   5.872  0.2997E+00  0.1613E+02
   5.882  0.3024E+00  0.1614E+02
   5.892  0.3047E+00  0.1614E+02
   5.902  0.3066E+00  0.1614E+02
   5.912  0.3084E+00  0.1615E+02
   5.922  0.3099E+00  0.1615E+02
   5.932  0.3113E+00  0.1615E+02
   5.942  0.3123E+00  0.1615E+02
   5.952  0.3134E+00  0.1616E+02
   5.962  0.3245E+00  0.1616E+02
   5.972  0.3332E+00  0.1616E+02
   5.982  0.3403E+00  0.1617E+02
   5.992  0.3474E+00  0.1617E+02
   6.002  0.3550E+00  0.1617E+02
   6.012  0.3666E+00  0.1618E+02
   6.022  0.3712E+00  0.1618E+02
   6.032  0.3754E+00  0.1619E+02
   6.042  0.3796E+00  0.1619E+02
   6.052  0.3838E+00  0.1619E+02
   6.062  0.3876E+00  0.1620E+02
   6.072  0.3930E+00  0.1620E+02
   6.082  0.4011E+00  0.1620E+02
   6.092  0.4098E+00  0.1621E+02
   6.102  0.4190E+00  0.1621E+02
   6.112  0.4277E+00  0.1622E+02
   6.122  0.4362E+00  0.1622E+02
   6.132  0.4449E+00  0.1623E+02
   6.142  0.4530E+00  0.1623E+02
   6.152  0.4582E+00  0.1623E+02
   6.162  0.4617E+00  0.1624E+02
   6.172  0.4638E+00  0.1624E+02
   6.182  0.4752E+00  0.1625E+02
   6.192  0.4907E+00  0.1625E+02
   6.202  0.4990E+00  0.1626E+02
   6.212  0.5047E+00  0.1626E+02
   6.222  0.5100E+00  0.1627E+02
   6.232  0.5147E+00  0.1627E+02
   6.242  0.5207E+00  0.1628E+02
   6.252  0.5328E+00  0.1628E+02
   6.262  0.5484E+00  0.1629E+02
   6.272  0.5668E+00  0.1630E+02
   6.282  0.5883E+00  0.1630E+02
   6.292  0.6151E+00  0.1631E+02
   6.302  0.6347E+00  0.1631E+02
   6.312  0.6552E+00  0.1632E+02
   6.322  0.6901E+00  0.1633E+02
   6.332  0.6899E+00  0.1633E+02
   6.342  0.6896E+00  0.1634E+02
   6.352  0.7059E+00  0.1635E+02
   6.362  0.7297E+00  0.1635E+02
   6.372  0.7594E+00  0.1636E+02
   6.382  0.7928E+00  0.1637E+02
   6.392  0.8848E+00  0.1638E+02
   6.402  0.9073E+00  0.1639E+02
   6.412  0.9575E+00  0.1640E+02
   6.422  0.1132E+01  0.1641E+02
   6.432  0.1247E+01  0.1642E+02
   6.442  0.1224E+01  0.1643E+02
   6.452  0.1223E+01  0.1644E+02
   6.462  0.1213E+01  0.1646E+02
   6.472  0.1208E+01  0.1647E+02
   6.482  0.1205E+01  0.1648E+02
   6.492  0.1191E+01  0.1649E+02
   6.502  0.1186E+01  0.1650E+02
   6.512  0.1184E+01  0.1652E+02
   6.522  0.1188E+01  0.1653E+02
   6.532  0.1191E+01  0.1654E+02
   6.542  0.1194E+01  0.1655E+02
   6.552  0.1198E+01  0.1656E+02
   6.562  0.1199E+01  0.1658E+02
   6.572  0.1204E+01  0.1659E+02
   6.582  0.1213E+01  0.1660E+02
   6.592  0.1198E+01  0.1661E+02
   6.602  0.1178E+01  0.1662E+02
   6.612  0.1185E+01  0.1664E+02
   6.622  0.1195E+01  0.1665E+02
   6.632  0.1202E+01  0.1666E+02
   6.642  0.1259E+01  0.1667E+02
   6.652  0.1186E+01  0.1668E+02
   6.662  0.1192E+01  0.1670E+02
   6.672  0.1111E+01  0.1671E+02
   6.682  0.1066E+01  0.1672E+02
   6.692  0.1037E+01  0.1673E+02
   6.702  0.1010E+01  0.1674E+02
   6.712  0.9852E+00  0.1675E+02
   6.722  0.9634E+00  0.1676E+02
   6.732  0.9453E+00  0.1677E+02
   6.742  0.9299E+00  0.1678E+02
   6.752  0.9158E+00  0.1679E+02
   6.762  0.9028E+00  0.1680E+02
   6.772  0.8902E+00  0.1680E+02
   6.782  0.8782E+00  0.1681E+02
   6.792  0.8665E+00  0.1682E+02
   6.802  0.8554E+00  0.1683E+02
   6.812  0.8450E+00  0.1684E+02
   6.822  0.8354E+00  0.1685E+02
   6.832  0.8264E+00  0.1686E+02
   6.842  0.8180E+00  0.1686E+02
   6.852  0.8101E+00  0.1687E+02
   6.862  0.8024E+00  0.1688E+02
   6.872  0.7950E+00  0.1689E+02
   6.882  0.7879E+00  0.1690E+02
   6.892  0.7810E+00  0.1690E+02
   6.902  0.7743E+00  0.1691E+02
   6.912  0.7679E+00  0.1692E+02
   6.922  0.7617E+00  0.1693E+02
   6.932  0.7557E+00  0.1693E+02
   6.942  0.7503E+00  0.1694E+02
   6.952  0.7451E+00  0.1695E+02
   6.962  0.7400E+00  0.1696E+02
   6.972  0.7352E+00  0.1696E+02
   6.982  0.7305E+00  0.1697E+02
   6.992  0.7259E+00  0.1698E+02
   7.002  0.7214E+00  0.1699E+02
   7.012  0.7170E+00  0.1699E+02
   7.022  0.7126E+00  0.1700E+02
   7.032  0.7083E+00  0.1701E+02
   7.042  0.7041E+00  0.1701E+02
   7.052  0.7000E+00  0.1702E+02
   7.062  0.6961E+00  0.1703E+02
   7.072  0.6922E+00  0.1704E+02
   7.082  0.6884E+00  0.1704E+02
   7.092  0.6847E+00  0.1705E+02
   7.102  0.6811E+00  0.1706E+02
   7.112  0.6775E+00  0.1706E+02
   7.122  0.6740E+00  0.1707E+02
   7.132  0.6706E+00  0.1708E+02
   7.142  0.6673E+00  0.1708E+02
   7.152  0.6640E+00  0.1709E+02
   7.162  0.6607E+00  0.1710E+02
   7.172  0.6573E+00  0.1710E+02
   7.182  0.6539E+00  0.1711E+02
   7.192  0.6506E+00  0.1712E+02
   7.202  0.6474E+00  0.1712E+02
   7.212  0.6444E+00  0.1713E+02
   7.222  0.6413E+00  0.1714E+02
   7.232  0.6384E+00  0.1714E+02
   7.242  0.6355E+00  0.1715E+02
   7.252  0.6326E+00  0.1715E+02
   7.262  0.6298E+00  0.1716E+02
   7.272  0.6271E+00  0.1717E+02
   7.282  0.6244E+00  0.1717E+02
   7.292  0.6218E+00  0.1718E+02
   7.302  0.6193E+00  0.1719E+02
   7.312  0.6168E+00  0.1719E+02
   7.322  0.6143E+00  0.1720E+02
   7.332  0.6122E+00  0.1720E+02
   7.342  0.6101E+00  0.1721E+02
   7.352  0.6081E+00  0.1722E+02
   7.362  0.6060E+00  0.1722E+02
   7.372  0.6039E+00  0.1723E+02
   7.382  0.6019E+00  0.1723E+02
   7.392  0.5999E+00  0.1724E+02
   7.402  0.5979E+00  0.1725E+02
   7.412  0.5959E+00  0.1725E+02
   7.422  0.5939E+00  0.1726E+02
   7.432  0.5919E+00  0.1726E+02
   7.442  0.5900E+00  0.1727E+02
   7.452  0.5881E+00  0.1728E+02
   7.462  0.5861E+00  0.1728E+02
   7.472  0.5842E+00  0.1729E+02
   7.482  0.5824E+00  0.1729E+02
   7.492  0.5805E+00  0.1730E+02
   7.502  0.5787E+00  0.1731E+02
   7.512  0.5768E+00  0.1731E+02
   7.522  0.5750E+00  0.1732E+02
   7.532  0.5732E+00  0.1732E+02
   7.542  0.5714E+00  0.1733E+02
   7.552  0.5695E+00  0.1733E+02
   7.562  0.5677E+00  0.1734E+02
   7.572  0.5659E+00  0.1735E+02
   7.582  0.5639E+00  0.1735E+02
   7.592  0.5619E+00  0.1736E+02
   7.602  0.5600E+00  0.1736E+02
   7.612  0.5582E+00  0.1737E+02
   7.622  0.5565E+00  0.1737E+02
   7.632  0.5547E+00  0.1738E+02
   7.642  0.5530E+00  0.1738E+02
   7.652  0.5514E+00  0.1739E+02
   7.662  0.5497E+00  0.1740E+02
   7.672  0.5480E+00  0.1740E+02
   7.682  0.5464E+00  0.1741E+02
   7.692  0.5448E+00  0.1741E+02
   7.702  0.5432E+00  0.1742E+02
   7.712  0.5416E+00  0.1742E+02
   7.722  0.5401E+00  0.1743E+02
   7.732  0.5388E+00  0.1743E+02
   7.742  0.5376E+00  0.1744E+02
   7.752  0.5363E+00  0.1744E+02
   7.762  0.5351E+00  0.1745E+02
   7.772  0.5338E+00  0.1746E+02
   7.782  0.5326E+00  0.1746E+02
   7.792  0.5314E+00  0.1747E+02
   7.802  0.5302E+00  0.1747E+02
   7.812  0.5289E+00  0.1748E+02
   7.822  0.5277E+00  0.1748E+02
   7.832  0.5265E+00  0.1749E+02
   7.842  0.5253E+00  0.1749E+02
   7.852  0.5241E+00  0.1750E+02
   7.862  0.5228E+00  0.1750E+02
   7.872  0.5216E+00  0.1751E+02
   7.882  0.5204E+00  0.1751E+02
   7.892  0.5192E+00  0.1752E+02
   7.902  0.5180E+00  0.1752E+02
   7.912  0.5167E+00  0.1753E+02
   7.922  0.5155E+00  0.1753E+02
   7.932  0.5143E+00  0.1754E+02
   7.942  0.5131E+00  0.1754E+02
   7.952  0.5118E+00  0.1755E+02
   7.962  0.5106E+00  0.1755E+02
   7.972  0.5093E+00  0.1756E+02
   7.982  0.5080E+00  0.1756E+02
   7.992  0.5074E+00  0.1757E+02
   8.002  0.5188E+00  0.1758E+02
   8.012  0.5289E+00  0.1758E+02
   8.022  0.5349E+00  0.1759E+02
   8.032  0.5383E+00  0.1759E+02
   8.042  0.5418E+00  0.1760E+02
   8.052  0.5437E+00  0.1760E+02
   8.062  0.5463E+00  0.1761E+02
   8.072  0.5501E+00  0.1761E+02
   8.082  0.5542E+00  0.1762E+02
   8.092  0.5559E+00  0.1762E+02
   8.102  0.5566E+00  0.1763E+02
   8.112  0.5576E+00  0.1763E+02
   8.122  0.5590E+00  0.1764E+02
   8.132  0.5606E+00  0.1765E+02
   8.142  0.5629E+00  0.1765E+02
   8.152  0.5651E+00  0.1766E+02
   8.162  0.5668E+00  0.1766E+02
   8.172  0.5678E+00  0.1767E+02
   8.182  0.5692E+00  0.1767E+02
   8.192  0.5709E+00  0.1768E+02
   8.202  0.5725E+00  0.1769E+02
   8.212  0.5736E+00  0.1769E+02
   8.222  0.5748E+00  0.1770E+02
   8.232  0.5761E+00  0.1770E+02
   8.242  0.5773E+00  0.1771E+02
   8.252  0.5783E+00  0.1771E+02
   8.262  0.5790E+00  0.1772E+02
   8.272  0.5797E+00  0.1773E+02
   8.282  0.5806E+00  0.1773E+02
   8.292  0.5816E+00  0.1774E+02
   8.302  0.5827E+00  0.1774E+02
   8.312  0.5838E+00  0.1775E+02
   8.322  0.5849E+00  0.1776E+02
   8.332  0.5860E+00  0.1776E+02
   8.342  0.5871E+00  0.1777E+02
   8.352  0.5883E+00  0.1777E+02
   8.362  0.5890E+00  0.1778E+02
   8.372  0.5893E+00  0.1778E+02
   8.382  0.5897E+00  0.1779E+02
   8.392  0.5902E+00  0.1780E+02
   8.402  0.5907E+00  0.1780E+02
   8.412  0.5912E+00  0.1781E+02
   8.422  0.5916E+00  0.1781E+02
   8.432  0.5920E+00  0.1782E+02
   8.442  0.5924E+00  0.1783E+02
   8.452  0.5930E+00  0.1783E+02
   8.462  0.5936E+00  0.1784E+02
   8.472  0.5943E+00  0.1784E+02
   8.482  0.5951E+00  0.1785E+02
   8.492  0.5956E+00  0.1786E+02
   8.502  0.5961E+00  0.1786E+02
   8.512  0.5965E+00  0.1787E+02
   8.522  0.5970E+00  0.1787E+02
   8.532  0.5976E+00  0.1788E+02
   8.542  0.5981E+00  0.1789E+02
   8.552  0.5987E+00  0.1789E+02
   8.562  0.5991E+00  0.1790E+02
   8.572  0.5997E+00  0.1790E+02
   8.582  0.6004E+00  0.1791E+02
   8.592  0.6011E+00  0.1792E+02
   8.602  0.6018E+00  0.1792E+02
   8.612  0.6025E+00  0.1793E+02
   8.622  0.6032E+00  0.1793E+02
   8.632  0.6040E+00  0.1794E+02
   8.642  0.6046E+00  0.1795E+02
   8.652  0.6050E+00  0.1795E+02
   8.662  0.6055E+00  0.1796E+02
   8.672  0.6060E+00  0.1796E+02
   8.682  0.6066E+00  0.1797E+02
   8.692  0.6071E+00  0.1798E+02
   8.702  0.6076E+00  0.1798E+02
   8.712  0.6082E+00  0.1799E+02
   8.722  0.6088E+00  0.1799E+02
   8.732  0.6094E+00  0.1800E+02
   8.742  0.6100E+00  0.1801E+02
   8.752  0.6106E+00  0.1801E+02
   8.762  0.6112E+00  0.1802E+02
   8.772  0.6119E+00  0.1802E+02
   8.782  0.6125E+00  0.1803E+02
   8.792  0.6131E+00  0.1804E+02
   8.802  0.6136E+00  0.1804E+02
   8.812  0.6140E+00  0.1805E+02
   8.822  0.6142E+00  0.1806E+02
   8.832  0.6144E+00  0.1806E+02
   8.842  0.6146E+00  0.1807E+02
   8.852  0.6149E+00  0.1807E+02
   8.862  0.6151E+00  0.1808E+02
   8.872  0.6152E+00  0.1809E+02
   8.882  0.6154E+00  0.1809E+02
   8.892  0.6157E+00  0.1810E+02
   8.902  0.6160E+00  0.1810E+02
   8.912  0.6163E+00  0.1811E+02
   8.922  0.6167E+00  0.1812E+02
   8.932  0.6171E+00  0.1812E+02
   8.942  0.6175E+00  0.1813E+02
   8.952  0.6179E+00  0.1814E+02
   8.962  0.6183E+00  0.1814E+02
   8.972  0.6188E+00  0.1815E+02
   8.982  0.6193E+00  0.1815E+02
   8.992  0.6197E+00  0.1816E+02
   9.002  0.6203E+00  0.1817E+02
   9.012  0.6208E+00  0.1817E+02
   9.022  0.6213E+00  0.1818E+02
   9.032  0.6219E+00  0.1819E+02
   9.042  0.6224E+00  0.1819E+02
   9.052  0.6230E+00  0.1820E+02
   9.062  0.6234E+00  0.1820E+02
   9.072  0.6239E+00  0.1821E+02
   9.082  0.6243E+00  0.1822E+02
   9.092  0.6248E+00  0.1822E+02
   9.102  0.6253E+00  0.1823E+02
   9.112  0.6257E+00  0.1823E+02
   9.122  0.6262E+00  0.1824E+02
   9.132  0.6267E+00  0.1825E+02
   9.142  0.6272E+00  0.1825E+02
   9.152  0.6277E+00  0.1826E+02
   9.162  0.6282E+00  0.1827E+02
   9.172  0.6287E+00  0.1827E+02
   9.182  0.6292E+00  0.1828E+02
   9.192  0.6297E+00  0.1829E+02
   9.202  0.6303E+00  0.1829E+02
   9.212  0.6307E+00  0.1830E+02
   9.222  0.6311E+00  0.1830E+02
   9.232  0.6314E+00  0.1831E+02
   9.242  0.6318E+00  0.1832E+02
   9.252  0.6321E+00  0.1832E+02
   9.262  0.6325E+00  0.1833E+02
   9.272  0.6328E+00  0.1834E+02
   9.282  0.6332E+00  0.1834E+02
   9.292  0.6335E+00  0.1835E+02
   9.302  0.6338E+00  0.1835E+02
   9.312  0.6340E+00  0.1836E+02
   9.322  0.6342E+00  0.1837E+02
   9.332  0.6345E+00  0.1837E+02
   9.342  0.6348E+00  0.1838E+02
   9.352  0.6352E+00  0.1839E+02
   9.362  0.6355E+00  0.1839E+02
   9.372  0.6358E+00  0.1840E+02
   9.382  0.6361E+00  0.1841E+02
   9.392  0.6365E+00  0.1841E+02
   9.402  0.6369E+00  0.1842E+02
   9.412  0.6372E+00  0.1842E+02
   9.422  0.6376E+00  0.1843E+02
   9.432  0.6380E+00  0.1844E+02
   9.442  0.6385E+00  0.1844E+02
   9.452  0.6390E+00  0.1845E+02
   9.462  0.6394E+00  0.1846E+02
   9.472  0.6399E+00  0.1846E+02
   9.482  0.6404E+00  0.1847E+02
   9.492  0.6408E+00  0.1848E+02
   9.502  0.6413E+00  0.1848E+02
   9.512  0.6418E+00  0.1849E+02
   9.522  0.6423E+00  0.1849E+02
   9.532  0.6428E+00  0.1850E+02
   9.542  0.6433E+00  0.1851E+02
   9.552  0.6438E+00  0.1851E+02
   9.562  0.6443E+00  0.1852E+02
   9.572  0.6448E+00  0.1853E+02
   9.582  0.6453E+00  0.1853E+02
   9.592  0.6458E+00  0.1854E+02
   9.602  0.6464E+00  0.1855E+02
   9.612  0.6469E+00  0.1855E+02
   9.622  0.6474E+00  0.1856E+02
   9.632  0.6479E+00  0.1857E+02
   9.642  0.6484E+00  0.1857E+02
   9.652  0.6489E+00  0.1858E+02
   9.662  0.6494E+00  0.1859E+02
   9.672  0.6500E+00  0.1859E+02
   9.682  0.6504E+00  0.1860E+02
   9.692  0.6509E+00  0.1860E+02
   9.702  0.6512E+00  0.1861E+02
   9.712  0.6516E+00  0.1862E+02
   9.722  0.6519E+00  0.1862E+02
   9.732  0.6522E+00  0.1863E+02
   9.742  0.6525E+00  0.1864E+02
   9.752  0.6528E+00  0.1864E+02
   9.762  0.6531E+00  0.1865E+02
   9.772  0.6532E+00  0.1866E+02
   9.782  0.6535E+00  0.1866E+02
   9.792  0.6538E+00  0.1867E+02
   9.802  0.6541E+00  0.1868E+02
   9.812  0.6545E+00  0.1868E+02
   9.822  0.6549E+00  0.1869E+02
   9.832  0.6552E+00  0.1870E+02
   9.842  0.6556E+00  0.1870E+02
   9.852  0.6560E+00  0.1871E+02
   9.862  0.6564E+00  0.1872E+02
   9.872  0.6568E+00  0.1872E+02
   9.882  0.6572E+00  0.1873E+02
   9.892  0.6578E+00  0.1874E+02
   9.902  0.6584E+00  0.1874E+02
   9.912  0.6590E+00  0.1875E+02
   9.922  0.6596E+00  0.1876E+02
   9.932  0.6603E+00  0.1876E+02
   9.942  0.6609E+00  0.1877E+02
   9.952  0.6615E+00  0.1878E+02
   9.962  0.6621E+00  0.1878E+02
   9.972  0.6626E+00  0.1879E+02
   9.982  0.6631E+00  0.1880E+02
   9.992  0.6637E+00  0.1880E+02
  10.002  0.6642E+00  0.1881E+02
  10.012  0.6648E+00  0.1882E+02
  10.022  0.6653E+00  0.1882E+02
  10.032  0.6658E+00  0.1883E+02
  10.042  0.6664E+00  0.1883E+02
  10.052  0.6669E+00  0.1884E+02
  10.062  0.6675E+00  0.1885E+02
  10.072  0.6680E+00  0.1886E+02
  10.082  0.6686E+00  0.1886E+02
  10.092  0.6691E+00  0.1887E+02
  10.102  0.6697E+00  0.1888E+02
  10.112  0.6703E+00  0.1888E+02
  10.122  0.6708E+00  0.1889E+02
  10.132  0.6713E+00  0.1890E+02
  10.142  0.6719E+00  0.1890E+02
  10.152  0.6724E+00  0.1891E+02
  10.162  0.6730E+00  0.1892E+02
  10.172  0.6735E+00  0.1892E+02
  10.182  0.6741E+00  0.1893E+02
  10.192  0.6747E+00  0.1894E+02
  10.202  0.6752E+00  0.1894E+02
  10.212  0.6757E+00  0.1895E+02
  10.222  0.6763E+00  0.1896E+02
  10.232  0.6769E+00  0.1896E+02
  10.242  0.6775E+00  0.1897E+02
  10.252  0.6782E+00  0.1898E+02
  10.262  0.6790E+00  0.1898E+02
  10.272  0.6798E+00  0.1899E+02
  10.282  0.6806E+00  0.1900E+02
  10.292  0.6814E+00  0.1900E+02
  10.302  0.6823E+00  0.1901E+02
  10.312  0.6832E+00  0.1902E+02
  10.322  0.6841E+00  0.1902E+02
  10.332  0.6850E+00  0.1903E+02
  10.342  0.6861E+00  0.1904E+02
  10.352  0.6875E+00  0.1904E+02
  10.362  0.6890E+00  0.1905E+02
  10.372  0.6904E+00  0.1906E+02
  10.382  0.6920E+00  0.1907E+02
  10.392  0.6935E+00  0.1907E+02
  10.402  0.6951E+00  0.1908E+02
  10.412  0.6969E+00  0.1909E+02
  10.422  0.6987E+00  0.1909E+02
  10.432  0.7008E+00  0.1910E+02
  10.442  0.7036E+00  0.1911E+02
  10.452  0.7069E+00  0.1911E+02
  10.462  0.7106E+00  0.1912E+02
  10.472  0.7158E+00  0.1913E+02
  10.482  0.7251E+00  0.1914E+02
  10.492  0.7349E+00  0.1914E+02
  10.502  0.7451E+00  0.1915E+02
  10.512  0.7572E+00  0.1916E+02
  10.522  0.7724E+00  0.1917E+02
  10.532  0.7806E+00  0.1917E+02
  10.542  0.7829E+00  0.1918E+02
  10.552  0.7842E+00  0.1919E+02
  10.562  0.7860E+00  0.1920E+02
  10.572  0.7893E+00  0.1920E+02
  10.582  0.7939E+00  0.1921E+02
  10.592  0.7997E+00  0.1922E+02
  10.602  0.8078E+00  0.1923E+02
  10.612  0.8128E+00  0.1924E+02
  10.622  0.8075E+00  0.1924E+02
  10.632  0.7872E+00  0.1925E+02
  10.642  0.7866E+00  0.1926E+02
  10.652  0.7749E+00  0.1927E+02
  10.662  0.7614E+00  0.1928E+02
  10.672  0.7478E+00  0.1928E+02
  10.682  0.7315E+00  0.1929E+02
  10.692  0.7059E+00  0.1930E+02
  10.702  0.6828E+00  0.1930E+02
  10.712  0.6767E+00  0.1931E+02
  10.722  0.6616E+00  0.1932E+02
  10.732  0.6455E+00  0.1932E+02
  10.742  0.6320E+00  0.1933E+02
  10.752  0.6230E+00  0.1934E+02
  10.762  0.6167E+00  0.1934E+02
  10.772  0.6124E+00  0.1935E+02
  10.782  0.6070E+00  0.1936E+02
  10.792  0.6018E+00  0.1936E+02
  10.802  0.5965E+00  0.1937E+02
  10.812  0.5904E+00  0.1937E+02
  10.822  0.5851E+00  0.1938E+02
  10.832  0.5808E+00  0.1939E+02
  10.842  0.5778E+00  0.1939E+02
  10.852  0.5770E+00  0.1940E+02
  10.862  0.5808E+00  0.1940E+02
  10.872  0.5838E+00  0.1941E+02
  10.882  0.5855E+00  0.1941E+02
  10.892  0.5889E+00  0.1942E+02
  10.902  0.5955E+00  0.1943E+02
  10.912  0.6041E+00  0.1943E+02
  10.922  0.6137E+00  0.1944E+02
  10.932  0.6243E+00  0.1944E+02
  10.942  0.6360E+00  0.1945E+02
  10.952  0.6490E+00  0.1946E+02
  10.962  0.6631E+00  0.1946E+02
  10.972  0.6792E+00  0.1947E+02
  10.982  0.6894E+00  0.1948E+02
  10.992  0.6987E+00  0.1948E+02
  11.002  0.7047E+00  0.1949E+02
  11.012  0.7224E+00  0.1950E+02
  11.022  0.7397E+00  0.1951E+02
  11.032  0.7420E+00  0.1951E+02
  11.042  0.7367E+00  0.1952E+02
  11.052  0.7309E+00  0.1953E+02
  11.062  0.7306E+00  0.1954E+02
  11.072  0.7326E+00  0.1954E+02
  11.082  0.7343E+00  0.1955E+02
  11.092  0.7351E+00  0.1956E+02
  11.102  0.7354E+00  0.1956E+02
  11.112  0.7358E+00  0.1957E+02
  11.122  0.7382E+00  0.1958E+02
  11.132  0.7422E+00  0.1959E+02
  11.142  0.7463E+00  0.1959E+02
  11.152  0.7359E+00  0.1960E+02
  11.162  0.7373E+00  0.1961E+02
  11.172  0.7400E+00  0.1962E+02
  11.182  0.7452E+00  0.1962E+02
  11.192  0.7500E+00  0.1963E+02
  11.202  0.7530E+00  0.1964E+02
  11.212  0.7547E+00  0.1965E+02
  11.222  0.7730E+00  0.1965E+02
  11.232  0.7560E+00  0.1966E+02
  11.242  0.7405E+00  0.1967E+02
  11.252  0.7318E+00  0.1968E+02
  11.262  0.7289E+00  0.1968E+02
  11.272  0.7313E+00  0.1969E+02
  11.282  0.7345E+00  0.1970E+02
  11.292  0.7373E+00  0.1971E+02
  11.302  0.7387E+00  0.1971E+02
  11.312  0.7378E+00  0.1972E+02
  11.322  0.7374E+00  0.1973E+02
  11.332  0.7374E+00  0.1974E+02
  11.342  0.7376E+00  0.1974E+02
  11.352  0.7377E+00  0.1975E+02
  11.362  0.7377E+00  0.1976E+02
  11.372  0.7378E+00  0.1977E+02
  11.382  0.7395E+00  0.1977E+02
  11.392  0.7419E+00  0.1978E+02
  11.402  0.7451E+00  0.1979E+02
  11.412  0.7487E+00  0.1979E+02
  11.422  0.7517E+00  0.1980E+02
  11.432  0.7539E+00  0.1981E+02
  11.442  0.7558E+00  0.1982E+02
  11.452  0.7591E+00  0.1982E+02
  11.462  0.7637E+00  0.1983E+02
  11.472  0.7682E+00  0.1984E+02
  11.482  0.7734E+00  0.1985E+02
  11.492  0.7781E+00  0.1986E+02
  11.502  0.7821E+00  0.1986E+02
  11.512  0.7857E+00  0.1987E+02
  11.522  0.7849E+00  0.1988E+02
  11.532  0.7858E+00  0.1989E+02
  11.542  0.7861E+00  0.1989E+02
  11.552  0.7867E+00  0.1990E+02
  11.562  0.7888E+00  0.1991E+02
  11.572  0.7916E+00  0.1992E+02
  11.582  0.7944E+00  0.1993E+02
  11.592  0.7968E+00  0.1993E+02
  11.602  0.7992E+00  0.1994E+02
  11.612  0.7994E+00  0.1995E+02
  11.622  0.7972E+00  0.1996E+02
  11.632  0.7970E+00  0.1997E+02
  11.642  0.7967E+00  0.1997E+02
  11.652  0.7960E+00  0.1998E+02
  11.662  0.7941E+00  0.1999E+02
  11.672  0.7905E+00  0.2000E+02
  11.682  0.7908E+00  0.2001E+02
  11.692  0.7879E+00  0.2001E+02
  11.702  0.7866E+00  0.2002E+02
  11.712  0.7855E+00  0.2003E+02
  11.722  0.7843E+00  0.2004E+02
  11.732  0.7834E+00  0.2005E+02
  11.742  0.7825E+00  0.2005E+02
  11.752  0.7828E+00  0.2006E+02
  11.762  0.7836E+00  0.2007E+02
  11.772  0.7841E+00  0.2008E+02
  11.782  0.7843E+00  0.2008E+02
  11.792  0.7841E+00  0.2009E+02
  11.802  0.7831E+00  0.2010E+02
  11.812  0.7811E+00  0.2011E+02
  11.822  0.7800E+00  0.2012E+02
  11.832  0.7794E+00  0.2012E+02
  11.842  0.7794E+00  0.2013E+02
  11.852  0.7799E+00  0.2014E+02
  11.862  0.7806E+00  0.2015E+02
  11.872  0.7808E+00  0.2015E+02
  11.882  0.7803E+00  0.2016E+02
  11.892  0.7798E+00  0.2017E+02
  11.902  0.7793E+00  0.2018E+02
  11.912  0.7788E+00  0.2019E+02
  11.922  0.7785E+00  0.2019E+02
  11.932  0.7784E+00  0.2020E+02
  11.942  0.7815E+00  0.2021E+02
  11.952  0.7853E+00  0.2022E+02
  11.962  0.7875E+00  0.2023E+02
  11.972  0.7881E+00  0.2023E+02
  11.982  0.7882E+00  0.2024E+02
  11.992  0.7883E+00  0.2025E+02
  12.002  0.7884E+00  0.2026E+02
  12.012  0.7887E+00  0.2026E+02
  12.022  0.7890E+00  0.2027E+02
  12.032  0.7892E+00  0.2028E+02
  12.042  0.7892E+00  0.2029E+02
  12.052  0.7892E+00  0.2030E+02
  12.062  0.7892E+00  0.2030E+02
  12.072  0.7893E+00  0.2031E+02
  12.082  0.7899E+00  0.2032E+02
  12.092  0.7916E+00  0.2033E+02
  12.102  0.7941E+00  0.2034E+02
  12.112  0.7950E+00  0.2034E+02
  12.122  0.7989E+00  0.2035E+02
  12.132  0.8088E+00  0.2036E+02
  12.142  0.8136E+00  0.2037E+02
  12.152  0.8050E+00  0.2038E+02
  12.162  0.7980E+00  0.2038E+02
  12.172  0.7975E+00  0.2039E+02
  12.182  0.7986E+00  0.2040E+02
  12.192  0.7998E+00  0.2041E+02
  12.202  0.8007E+00  0.2042E+02
  12.212  0.8016E+00  0.2042E+02
  12.222  0.8867E+00  0.2043E+02
  12.232  0.1014E+01  0.2044E+02
  12.242  0.1154E+01  0.2045E+02
  12.252  0.1296E+01  0.2046E+02
  12.262  0.1454E+01  0.2048E+02
  12.272  0.1551E+01  0.2049E+02
  12.282  0.1704E+01  0.2051E+02
  12.292  0.1829E+01  0.2053E+02
  12.302  0.1905E+01  0.2055E+02
  12.312  0.1954E+01  0.2057E+02
  12.322  0.1979E+01  0.2058E+02
  12.332  0.1963E+01  0.2060E+02
  12.342  0.1976E+01  0.2062E+02
  12.352  0.1971E+01  0.2064E+02
  12.362  0.1942E+01  0.2066E+02
  12.372  0.1933E+01  0.2068E+02
  12.382  0.1940E+01  0.2070E+02
  12.392  0.1948E+01  0.2072E+02
  12.402  0.1947E+01  0.2074E+02
  12.412  0.1937E+01  0.2076E+02
  12.422  0.1921E+01  0.2078E+02
  12.432  0.1895E+01  0.2080E+02
  12.442  0.1863E+01  0.2082E+02
  12.452  0.1845E+01  0.2084E+02
  12.462  0.1823E+01  0.2085E+02
  12.472  0.1789E+01  0.2087E+02
  12.482  0.1761E+01  0.2089E+02
  12.492  0.1732E+01  0.2091E+02
  12.502  0.1711E+01  0.2093E+02
  12.512  0.1699E+01  0.2094E+02
  12.522  0.1692E+01  0.2096E+02
  12.532  0.1687E+01  0.2098E+02
  12.542  0.1673E+01  0.2099E+02
  12.552  0.1663E+01  0.2101E+02
  12.562  0.1646E+01  0.2103E+02
  12.572  0.1643E+01  0.2104E+02
  12.582  0.1703E+01  0.2106E+02
  12.592  0.1725E+01  0.2108E+02
  12.602  0.1733E+01  0.2109E+02
  12.612  0.1741E+01  0.2111E+02
  12.622  0.1750E+01  0.2113E+02
  12.632  0.1753E+01  0.2115E+02
  12.642  0.1754E+01  0.2116E+02
  12.652  0.1737E+01  0.2118E+02
  12.662  0.1731E+01  0.2120E+02
  12.672  0.1733E+01  0.2122E+02
  12.682  0.1741E+01  0.2123E+02
  12.692  0.1751E+01  0.2125E+02
  12.702  0.1752E+01  0.2127E+02
  12.712  0.1750E+01  0.2129E+02
  12.722  0.1743E+01  0.2130E+02
  12.732  0.1739E+01  0.2132E+02
  12.742  0.1738E+01  0.2134E+02
  12.752  0.1741E+01  0.2136E+02
  12.762  0.1746E+01  0.2137E+02
  12.772  0.1757E+01  0.2139E+02
  12.782  0.1768E+01  0.2141E+02
  12.792  0.1771E+01  0.2143E+02
  12.802  0.1785E+01  0.2144E+02
  12.812  0.1792E+01  0.2146E+02
  12.822  0.1798E+01  0.2148E+02
  12.832  0.1807E+01  0.2150E+02
  12.842  0.1817E+01  0.2152E+02
  12.852  0.1830E+01  0.2153E+02
  12.862  0.1848E+01  0.2155E+02
  12.872  0.1860E+01  0.2157E+02
  12.882  0.1870E+01  0.2159E+02
  12.892  0.1884E+01  0.2161E+02
  12.902  0.1900E+01  0.2163E+02
  12.912  0.1918E+01  0.2165E+02
  12.922  0.1937E+01  0.2167E+02
  12.932  0.1954E+01  0.2168E+02
  12.942  0.1971E+01  0.2170E+02
  12.952  0.1981E+01  0.2172E+02
  12.962  0.2000E+01  0.2174E+02
  12.972  0.2017E+01  0.2176E+02
  12.982  0.2030E+01  0.2178E+02
  12.992  0.2041E+01  0.2180E+02
  13.002  0.2054E+01  0.2183E+02
  13.012  0.2067E+01  0.2185E+02
  13.022  0.2092E+01  0.2187E+02
  13.032  0.2098E+01  0.2189E+02
  13.042  0.2104E+01  0.2191E+02
  13.052  0.2117E+01  0.2193E+02
  13.062  0.2140E+01  0.2195E+02
  13.072  0.2169E+01  0.2197E+02
  13.082  0.2151E+01  0.2199E+02
  13.092  0.2157E+01  0.2202E+02
  13.102  0.2182E+01  0.2204E+02
  13.112  0.2208E+01  0.2206E+02
  13.122  0.2230E+01  0.2208E+02
  13.132  0.2254E+01  0.2210E+02
  13.142  0.2285E+01  0.2213E+02
  13.152  0.2320E+01  0.2215E+02
  13.162  0.2370E+01  0.2217E+02
  13.172  0.2572E+01  0.2220E+02
  13.182  0.3409E+01  0.2223E+02
  13.192  0.3671E+01  0.2226E+02
  13.202  0.3719E+01  0.2230E+02
  13.212  0.3997E+01  0.2234E+02
  13.222  0.4077E+01  0.2238E+02
  13.232  0.4379E+01  0.2242E+02
  13.242  0.4689E+01  0.2247E+02
  13.252  0.4915E+01  0.2252E+02
  13.262  0.5008E+01  0.2257E+02
  13.272  0.4682E+01  0.2261E+02
  13.282  0.4150E+01  0.2266E+02
  13.292  0.3623E+01  0.2270E+02
  13.302  0.3512E+01  0.2273E+02
  13.312  0.3389E+01  0.2277E+02
  13.322  0.3305E+01  0.2280E+02
  13.332  0.3209E+01  0.2283E+02
  13.342  0.3111E+01  0.2287E+02
  13.352  0.3002E+01  0.2290E+02
  13.362  0.2892E+01  0.2293E+02
  13.372  0.2788E+01  0.2295E+02
  13.382  0.2735E+01  0.2298E+02
  13.392  0.2704E+01  0.2301E+02
  13.402  0.2674E+01  0.2304E+02
  13.412  0.2638E+01  0.2306E+02
  13.422  0.2604E+01  0.2309E+02
  13.432  0.2570E+01  0.2311E+02
  13.442  0.2533E+01  0.2314E+02
  13.452  0.2492E+01  0.2316E+02
  13.462  0.2471E+01  0.2319E+02
  13.472  0.2448E+01  0.2321E+02
  13.482  0.2414E+01  0.2324E+02
  13.492  0.2385E+01  0.2326E+02
  13.502  0.2348E+01  0.2329E+02
  13.512  0.2311E+01  0.2331E+02
  13.522  0.2282E+01  0.2333E+02
  13.532  0.2256E+01  0.2335E+02
  13.542  0.2232E+01  0.2338E+02
  13.552  0.2211E+01  0.2340E+02
  13.562  0.2196E+01  0.2342E+02
  13.572  0.2182E+01  0.2344E+02
  13.582  0.2168E+01  0.2347E+02
  13.592  0.2150E+01  0.2349E+02
  13.602  0.2132E+01  0.2351E+02
  13.612  0.2115E+01  0.2353E+02
  13.622  0.2096E+01  0.2355E+02
  13.632  0.2077E+01  0.2357E+02
  13.642  0.2053E+01  0.2359E+02
  13.652  0.2028E+01  0.2361E+02
  13.662  0.2014E+01  0.2363E+02
  13.672  0.2000E+01  0.2365E+02
  13.682  0.1984E+01  0.2367E+02
  13.692  0.1965E+01  0.2369E+02
  13.702  0.1943E+01  0.2371E+02
  13.712  0.1918E+01  0.2373E+02
  13.722  0.1895E+01  0.2375E+02
  13.732  0.1878E+01  0.2377E+02
  13.742  0.1865E+01  0.2379E+02
  13.752  0.1853E+01  0.2381E+02
  13.762  0.1841E+01  0.2382E+02
  13.772  0.1831E+01  0.2384E+02
  13.782  0.1825E+01  0.2386E+02
  13.792  0.1824E+01  0.2388E+02
  13.802  0.1829E+01  0.2390E+02
  13.812  0.1833E+01  0.2392E+02
  13.822  0.1836E+01  0.2393E+02
  13.832  0.1837E+01  0.2395E+02
  13.842  0.1892E+01  0.2397E+02
  13.852  0.1941E+01  0.2399E+02
  13.862  0.1965E+01  0.2401E+02
  13.872  0.1968E+01  0.2403E+02
  13.882  0.1969E+01  0.2405E+02
  13.892  0.1987E+01  0.2407E+02
  13.902  0.2032E+01  0.2409E+02
  13.912  0.2189E+01  0.2411E+02
  13.922  0.1990E+01  0.2413E+02
  13.932  0.1858E+01  0.2415E+02
  13.942  0.1816E+01  0.2417E+02
  13.952  0.1813E+01  0.2419E+02
  13.962  0.1809E+01  0.2421E+02
  13.972  0.1804E+01  0.2422E+02
  13.982  0.1797E+01  0.2424E+02
  13.992  0.1789E+01  0.2426E+02
  14.002  0.1782E+01  0.2428E+02
  14.012  0.1775E+01  0.2429E+02
  14.022  0.1767E+01  0.2431E+02
  14.032  0.1760E+01  0.2433E+02
  14.042  0.1754E+01  0.2435E+02
  14.052  0.1748E+01  0.2437E+02
  14.062  0.1742E+01  0.2438E+02
  14.072  0.1736E+01  0.2440E+02
  14.082  0.1731E+01  0.2442E+02
  14.092  0.1727E+01  0.2443E+02
  14.102  0.1724E+01  0.2445E+02
  14.112  0.1722E+01  0.2447E+02
  14.122  0.1720E+01  0.2449E+02
  14.132  0.1717E+01  0.2450E+02
  14.142  0.1714E+01  0.2452E+02
  14.152  0.1712E+01  0.2454E+02
  14.162  0.1707E+01  0.2455E+02
  14.172  0.1704E+01  0.2457E+02
  14.182  0.1702E+01  0.2459E+02
  14.192  0.1699E+01  0.2461E+02
  14.202  0.1696E+01  0.2462E+02
  14.212  0.1692E+01  0.2464E+02
  14.222  0.1687E+01  0.2466E+02
  14.232  0.1682E+01  0.2467E+02
  14.242  0.1672E+01  0.2469E+02
  14.252  0.1673E+01  0.2471E+02
  14.262  0.1672E+01  0.2472E+02
  14.272  0.1670E+01  0.2474E+02
  14.282  0.1668E+01  0.2476E+02
  14.292  0.1666E+01  0.2477E+02
  14.302  0.1663E+01  0.2479E+02
  14.312  0.1659E+01  0.2481E+02
  14.322  0.1655E+01  0.2482E+02
  14.332  0.1651E+01  0.2484E+02
  14.342  0.1646E+01  0.2486E+02
  14.352  0.1641E+01  0.2487E+02
  14.362  0.1637E+01  0.2489E+02
  14.372  0.1633E+01  0.2491E+02
  14.382  0.1629E+01  0.2492E+02
  14.392  0.1625E+01  0.2494E+02
  14.402  0.1622E+01  0.2495E+02
  14.412  0.1620E+01  0.2497E+02
  14.422  0.1617E+01  0.2499E+02
  14.432  0.1614E+01  0.2500E+02
  14.442  0.1611E+01  0.2502E+02
  14.452  0.1608E+01  0.2504E+02
  14.462  0.1606E+01  0.2505E+02
  14.472  0.1605E+01  0.2507E+02
  14.482  0.1605E+01  0.2508E+02
  14.492  0.1620E+01  0.2510E+02
  14.502  0.1637E+01  0.2512E+02
  14.512  0.1645E+01  0.2513E+02
  14.522  0.1654E+01  0.2515E+02
  14.532  0.1665E+01  0.2517E+02
  14.542  0.1677E+01  0.2518E+02
  14.552  0.1691E+01  0.2520E+02
  14.562  0.1709E+01  0.2522E+02
  14.572  0.1729E+01  0.2523E+02
  14.582  0.1752E+01  0.2525E+02
  14.592  0.1781E+01  0.2527E+02
  14.602  0.1812E+01  0.2529E+02
  14.612  0.1844E+01  0.2530E+02
  14.622  0.1875E+01  0.2532E+02
  14.632  0.1866E+01  0.2534E+02
  14.642  0.1825E+01  0.2536E+02
  14.652  0.1746E+01  0.2538E+02
  14.662  0.1636E+01  0.2540E+02
  14.672  0.1573E+01  0.2541E+02
  14.682  0.1542E+01  0.2543E+02
  14.692  0.1495E+01  0.2544E+02
  14.702  0.1455E+01  0.2546E+02
  14.712  0.1428E+01  0.2547E+02
  14.722  0.1404E+01  0.2549E+02
  14.732  0.1378E+01  0.2550E+02
  14.742  0.1353E+01  0.2551E+02
  14.752  0.1334E+01  0.2553E+02
  14.762  0.1325E+01  0.2554E+02
  14.772  0.1317E+01  0.2555E+02
  14.782  0.1309E+01  0.2557E+02
  14.792  0.1302E+01  0.2558E+02
  14.802  0.1296E+01  0.2559E+02
  14.812  0.1296E+01  0.2560E+02
  14.822  0.1299E+01  0.2562E+02
  14.832  0.1305E+01  0.2563E+02
  14.842  0.1313E+01  0.2564E+02
  14.852  0.1325E+01  0.2566E+02
  14.862  0.1343E+01  0.2567E+02
  14.872  0.1364E+01  0.2568E+02
  14.882  0.1385E+01  0.2570E+02
  14.892  0.1406E+01  0.2571E+02
  14.902  0.1441E+01  0.2573E+02
  14.912  0.1513E+01  0.2574E+02
  14.922  0.1587E+01  0.2576E+02
  14.932  0.1650E+01  0.2577E+02
  14.942  0.1691E+01  0.2579E+02
  14.952  0.1720E+01  0.2581E+02
  14.962  0.1738E+01  0.2582E+02
  14.972  0.1747E+01  0.2584E+02
  14.982  0.1743E+01  0.2586E+02
  14.992  0.1731E+01  0.2588E+02
  15.002  0.1721E+01  0.2589E+02
  15.012  0.1715E+01  0.2591E+02
  15.022  0.1710E+01  0.2593E+02
  15.032  0.1702E+01  0.2594E+02
  15.042  0.1695E+01  0.2596E+02
  15.052  0.1700E+01  0.2598E+02
  15.062  0.1692E+01  0.2600E+02
  15.072  0.1680E+01  0.2601E+02
  15.082  0.1665E+01  0.2603E+02
  15.092  0.1649E+01  0.2605E+02
  15.102  0.1636E+01  0.2606E+02
  15.112  0.1631E+01  0.2608E+02
  15.122  0.1627E+01  0.2609E+02
  15.132  0.1624E+01  0.2611E+02
  15.142  0.1622E+01  0.2613E+02
  15.152  0.1620E+01  0.2614E+02
  15.162  0.1619E+01  0.2616E+02
  15.172  0.1620E+01  0.2618E+02
  15.182  0.1624E+01  0.2619E+02
  15.192  0.1628E+01  0.2621E+02
  15.202  0.1632E+01  0.2622E+02
  15.212  0.1637E+01  0.2624E+02
  15.222  0.1643E+01  0.2626E+02
  15.232  0.1651E+01  0.2627E+02
  15.242  0.1658E+01  0.2629E+02
  15.252  0.1683E+01  0.2631E+02
  15.262  0.1801E+01  0.2632E+02
  15.272  0.1850E+01  0.2634E+02
  15.282  0.1904E+01  0.2636E+02
  15.292  0.2005E+01  0.2638E+02
  15.302  0.2168E+01  0.2640E+02
  15.312  0.2211E+01  0.2642E+02
  15.322  0.2186E+01  0.2645E+02
  15.332  0.2196E+01  0.2647E+02
  15.342  0.2209E+01  0.2649E+02
  15.352  0.2208E+01  0.2651E+02
  15.362  0.2207E+01  0.2653E+02
  15.372  0.2206E+01  0.2656E+02
  15.382  0.2199E+01  0.2658E+02
  15.392  0.2194E+01  0.2660E+02
  15.402  0.2189E+01  0.2662E+02
  15.412  0.2183E+01  0.2664E+02
  15.422  0.2181E+01  0.2667E+02
  15.432  0.2183E+01  0.2669E+02
  15.442  0.2184E+01  0.2671E+02
  15.452  0.2185E+01  0.2673E+02
  15.462  0.2187E+01  0.2675E+02
  15.472  0.2191E+01  0.2677E+02
  15.482  0.2197E+01  0.2680E+02
  15.492  0.2203E+01  0.2682E+02
  15.502  0.2217E+01  0.2684E+02
  15.512  0.2298E+01  0.2686E+02
  15.522  0.2286E+01  0.2689E+02
  15.532  0.2258E+01  0.2691E+02
  15.542  0.2206E+01  0.2693E+02
  15.552  0.2183E+01  0.2695E+02
  15.562  0.2193E+01  0.2698E+02
  15.572  0.2139E+01  0.2700E+02
  15.582  0.2065E+01  0.2702E+02
  15.592  0.2032E+01  0.2704E+02
  15.602  0.2001E+01  0.2706E+02
  15.612  0.1961E+01  0.2708E+02
  15.622  0.1927E+01  0.2710E+02
  15.632  0.1893E+01  0.2712E+02
  15.642  0.1859E+01  0.2714E+02
  15.652  0.1823E+01  0.2715E+02
  15.662  0.1787E+01  0.2717E+02
  15.672  0.1755E+01  0.2719E+02
  15.682  0.1726E+01  0.2721E+02
  15.692  0.1700E+01  0.2722E+02
  15.702  0.1679E+01  0.2724E+02
  15.712  0.1657E+01  0.2726E+02
  15.722  0.1638E+01  0.2727E+02
  15.732  0.1623E+01  0.2729E+02
  15.742  0.1610E+01  0.2731E+02
  15.752  0.1602E+01  0.2732E+02
  15.762  0.1586E+01  0.2734E+02
  15.772  0.1572E+01  0.2735E+02
  15.782  0.1563E+01  0.2737E+02
  15.792  0.1556E+01  0.2739E+02
  15.802  0.1545E+01  0.2740E+02
  15.812  0.1528E+01  0.2742E+02
  15.822  0.1522E+01  0.2743E+02
  15.832  0.1499E+01  0.2745E+02
  15.842  0.1457E+01  0.2746E+02
  15.852  0.1454E+01  0.2748E+02
  15.862  0.1453E+01  0.2749E+02
  15.872  0.1451E+01  0.2751E+02
  15.882  0.1466E+01  0.2752E+02
  15.892  0.1499E+01  0.2753E+02
  15.902  0.1526E+01  0.2755E+02
  15.912  0.1552E+01  0.2757E+02
  15.922  0.1583E+01  0.2758E+02
  15.932  0.1584E+01  0.2760E+02
  15.942  0.1557E+01  0.2761E+02
  15.952  0.1545E+01  0.2763E+02
  15.962  0.1538E+01  0.2764E+02
  15.972  0.1529E+01  0.2766E+02
  15.982  0.1520E+01  0.2767E+02
  15.992  0.1508E+01  0.2769E+02
  16.002  0.1494E+01  0.2770E+02
  16.012  0.1494E+01  0.2772E+02
  16.022  0.1496E+01  0.2773E+02
  16.032  0.1494E+01  0.2775E+02
  16.042  0.1494E+01  0.2776E+02
  16.052  0.1500E+01  0.2778E+02
  16.062  0.1520E+01  0.2779E+02
  16.072  0.1530E+01  0.2781E+02
  16.082  0.1503E+01  0.2782E+02
  16.092  0.1477E+01  0.2784E+02
  16.102  0.1470E+01  0.2785E+02
  16.112  0.1469E+01  0.2787E+02
  16.122  0.1472E+01  0.2788E+02
  16.132  0.1478E+01  0.2790E+02
  16.142  0.1489E+01  0.2791E+02
  16.152  0.1500E+01  0.2793E+02
  16.162  0.1506E+01  0.2794E+02
  16.172  0.1505E+01  0.2796E+02
  16.182  0.1504E+01  0.2797E+02
  16.192  0.1499E+01  0.2799E+02
  16.202  0.1496E+01  0.2800E+02
  16.212  0.1505E+01  0.2802E+02
  16.222  0.1516E+01  0.2803E+02
  16.232  0.1506E+01  0.2805E+02
  16.242  0.1444E+01  0.2806E+02
  16.252  0.1388E+01  0.2808E+02
  16.262  0.1352E+01  0.2809E+02
  16.272  0.1351E+01  0.2810E+02
  16.282  0.1359E+01  0.2812E+02
  16.292  0.1333E+01  0.2813E+02
  16.302  0.1309E+01  0.2814E+02
  16.312  0.1300E+01  0.2816E+02
  16.322  0.1274E+01  0.2817E+02
  16.332  0.1259E+01  0.2818E+02
  16.342  0.1240E+01  0.2820E+02
  16.352  0.1213E+01  0.2821E+02
  16.362  0.1171E+01  0.2822E+02
  16.372  0.1150E+01  0.2823E+02
  16.382  0.1135E+01  0.2824E+02
  16.392  0.1134E+01  0.2825E+02
  16.402  0.1128E+01  0.2827E+02
  16.412  0.1118E+01  0.2828E+02
  16.422  0.1107E+01  0.2829E+02
  16.432  0.1096E+01  0.2830E+02
  16.442  0.1087E+01  0.2831E+02
  16.452  0.1082E+01  0.2832E+02
  16.462  0.1081E+01  0.2833E+02
  16.472  0.1082E+01  0.2834E+02
  16.482  0.1084E+01  0.2835E+02
  16.492  0.1083E+01  0.2836E+02
  16.502  0.1083E+01  0.2837E+02
  16.512  0.1080E+01  0.2839E+02
  16.522  0.1084E+01  0.2840E+02
  16.532  0.1084E+01  0.2841E+02
  16.542  0.1082E+01  0.2842E+02
  16.552  0.1080E+01  0.2843E+02
  16.562  0.1080E+01  0.2844E+02
  16.572  0.1088E+01  0.2845E+02
  16.582  0.1096E+01  0.2846E+02
  16.592  0.1100E+01  0.2847E+02
  16.602  0.1109E+01  0.2848E+02
  16.612  0.1111E+01  0.2849E+02
  16.622  0.1108E+01  0.2851E+02
  16.632  0.1105E+01  0.2852E+02
  16.642  0.1099E+01  0.2853E+02
  16.652  0.1075E+01  0.2854E+02
  16.662  0.1072E+01  0.2855E+02
  16.672  0.1064E+01  0.2856E+02
  16.682  0.1065E+01  0.2857E+02
  16.692  0.1063E+01  0.2858E+02
  16.702  0.1058E+01  0.2859E+02
  16.712  0.1055E+01  0.2860E+02
  16.722  0.1053E+01  0.2861E+02
  16.732  0.1052E+01  0.2862E+02
  16.742  0.1051E+01  0.2863E+02
  16.752  0.1052E+01  0.2864E+02
  16.762  0.1056E+01  0.2866E+02
  16.772  0.1059E+01  0.2867E+02
  16.782  0.1061E+01  0.2868E+02
  16.792  0.1062E+01  0.2869E+02
  16.802  0.1068E+01  0.2870E+02
  16.812  0.1088E+01  0.2871E+02
  16.822  0.1105E+01  0.2872E+02
  16.832  0.1121E+01  0.2873E+02
  16.842  0.1139E+01  0.2874E+02
  16.852  0.1172E+01  0.2875E+02
  16.862  0.1216E+01  0.2877E+02
  16.872  0.1248E+01  0.2878E+02
  16.882  0.1273E+01  0.2879E+02
  16.892  0.1302E+01  0.2880E+02
  16.902  0.1346E+01  0.2882E+02
  16.912  0.1407E+01  0.2883E+02
  16.922  0.1466E+01  0.2884E+02
  16.932  0.1447E+01  0.2886E+02
  16.942  0.1448E+01  0.2887E+02
  16.952  0.1460E+01  0.2889E+02
  16.962  0.1478E+01  0.2890E+02
  16.972  0.1475E+01  0.2892E+02
  16.982  0.1470E+01  0.2893E+02
  16.992  0.1467E+01  0.2895E+02
  17.002  0.1465E+01  0.2896E+02
  17.012  0.1469E+01  0.2898E+02
  17.022  0.1471E+01  0.2899E+02
  17.032  0.1469E+01  0.2901E+02
  17.042  0.1467E+01  0.2902E+02
  17.052  0.1465E+01  0.2904E+02
  17.062  0.1463E+01  0.2905E+02
  17.072  0.1460E+01  0.2906E+02
  17.082  0.1456E+01  0.2908E+02
  17.092  0.1454E+01  0.2909E+02
  17.102  0.1456E+01  0.2911E+02
  17.112  0.1467E+01  0.2912E+02
  17.122  0.1472E+01  0.2914E+02
  17.132  0.1474E+01  0.2915E+02
  17.142  0.1470E+01  0.2917E+02
  17.152  0.1461E+01  0.2918E+02
  17.162  0.1450E+01  0.2920E+02
  17.172  0.1447E+01  0.2921E+02
  17.182  0.1451E+01  0.2923E+02
  17.192  0.1457E+01  0.2924E+02
  17.202  0.1463E+01  0.2925E+02
  17.212  0.1469E+01  0.2927E+02
  17.222  0.1475E+01  0.2928E+02
  17.232  0.1484E+01  0.2930E+02
  17.242  0.1502E+01  0.2931E+02
  17.252  0.1519E+01  0.2933E+02
  17.262  0.1561E+01  0.2934E+02
  17.272  0.1604E+01  0.2936E+02
  17.282  0.1666E+01  0.2938E+02
  17.292  0.1748E+01  0.2939E+02
  17.302  0.1800E+01  0.2941E+02
  17.312  0.1872E+01  0.2943E+02
  17.322  0.1836E+01  0.2945E+02
  17.332  0.1682E+01  0.2946E+02
  17.342  0.1672E+01  0.2948E+02
  17.352  0.1667E+01  0.2950E+02
  17.362  0.1630E+01  0.2951E+02
  17.372  0.1621E+01  0.2953E+02
  17.382  0.1607E+01  0.2955E+02
  17.392  0.1605E+01  0.2956E+02
  17.402  0.1608E+01  0.2958E+02
  17.412  0.1613E+01  0.2960E+02
  17.422  0.1614E+01  0.2961E+02
  17.432  0.1608E+01  0.2963E+02
  17.442  0.1604E+01  0.2964E+02
  17.452  0.1601E+01  0.2966E+02
  17.462  0.1606E+01  0.2968E+02
  17.472  0.1610E+01  0.2969E+02
  17.482  0.1615E+01  0.2971E+02
  17.492  0.1659E+01  0.2972E+02
  17.502  0.1706E+01  0.2974E+02
  17.512  0.1724E+01  0.2976E+02
  17.522  0.1714E+01  0.2978E+02
  17.532  0.1702E+01  0.2979E+02
  17.542  0.1684E+01  0.2981E+02
  17.552  0.1676E+01  0.2983E+02
  17.562  0.1670E+01  0.2984E+02
  17.572  0.1675E+01  0.2986E+02
  17.582  0.1673E+01  0.2988E+02
  17.592  0.1659E+01  0.2989E+02
  17.602  0.1650E+01  0.2991E+02
  17.612  0.1639E+01  0.2993E+02
  17.622  0.1630E+01  0.2994E+02
  17.632  0.1629E+01  0.2996E+02
  17.642  0.1629E+01  0.2998E+02
  17.652  0.1628E+01  0.2999E+02
  17.662  0.1629E+01  0.3001E+02
  17.672  0.1633E+01  0.3002E+02
  17.682  0.1638E+01  0.3004E+02
  17.692  0.1649E+01  0.3006E+02
  17.702  0.1640E+01  0.3007E+02
  17.712  0.1638E+01  0.3009E+02
  17.722  0.1635E+01  0.3011E+02
  17.732  0.1638E+01  0.3012E+02
  17.742  0.1641E+01  0.3014E+02
  17.752  0.1634E+01  0.3016E+02
  17.762  0.1618E+01  0.3017E+02
  17.772  0.1603E+01  0.3019E+02
  17.782  0.1591E+01  0.3020E+02
  17.792  0.1583E+01  0.3022E+02
  17.802  0.1577E+01  0.3024E+02
  17.812  0.1575E+01  0.3025E+02
  17.822  0.1576E+01  0.3027E+02
  17.832  0.1582E+01  0.3028E+02
  17.842  0.1595E+01  0.3030E+02
  17.852  0.1610E+01  0.3031E+02
  17.862  0.1586E+01  0.3033E+02
  17.872  0.1573E+01  0.3035E+02
  17.882  0.1558E+01  0.3036E+02
  17.892  0.1539E+01  0.3038E+02
  17.902  0.1523E+01  0.3039E+02
  17.912  0.1510E+01  0.3041E+02
  17.922  0.1501E+01  0.3042E+02
  17.932  0.1499E+01  0.3044E+02
  17.942  0.1504E+01  0.3045E+02
  17.952  0.1489E+01  0.3047E+02
  17.962  0.1472E+01  0.3048E+02
  17.972  0.1455E+01  0.3050E+02
  17.982  0.1439E+01  0.3051E+02
  17.992  0.1428E+01  0.3053E+02
  18.002  0.1422E+01  0.3054E+02
  18.012  0.1431E+01  0.3055E+02
  18.022  0.1429E+01  0.3057E+02
  18.032  0.1410E+01  0.3058E+02
  18.042  0.1377E+01  0.3060E+02
  18.052  0.1346E+01  0.3061E+02
  18.062  0.1321E+01  0.3062E+02
  18.072  0.1301E+01  0.3064E+02
  18.082  0.1283E+01  0.3065E+02
  18.092  0.1268E+01  0.3066E+02
  18.102  0.1253E+01  0.3068E+02
  18.112  0.1239E+01  0.3069E+02
  18.122  0.1225E+01  0.3070E+02
  18.132  0.1210E+01  0.3071E+02
  18.142  0.1196E+01  0.3072E+02
  18.152  0.1184E+01  0.3074E+02
  18.162  0.1174E+01  0.3075E+02
  18.172  0.1169E+01  0.3076E+02
  18.182  0.1159E+01  0.3077E+02
  18.192  0.1149E+01  0.3078E+02
  18.202  0.1135E+01  0.3079E+02
  18.212  0.1129E+01  0.3081E+02
  18.222  0.1123E+01  0.3082E+02
  18.232  0.1116E+01  0.3083E+02
  18.242  0.1111E+01  0.3084E+02
  18.252  0.1106E+01  0.3085E+02
  18.262  0.1101E+01  0.3086E+02
  18.272  0.1096E+01  0.3087E+02
  18.282  0.1089E+01  0.3088E+02
  18.292  0.1080E+01  0.3089E+02
  18.302  0.1074E+01  0.3090E+02
  18.312  0.1067E+01  0.3092E+02
  18.322  0.1058E+01  0.3093E+02
  18.332  0.1049E+01  0.3094E+02
  18.342  0.1040E+01  0.3095E+02
  18.352  0.1031E+01  0.3096E+02
  18.362  0.1022E+01  0.3097E+02
  18.372  0.1014E+01  0.3098E+02
  18.382  0.1006E+01  0.3099E+02
  18.392  0.9974E+00  0.3100E+02
  18.402  0.9876E+00  0.3101E+02
  18.412  0.9806E+00  0.3102E+02
  18.422  0.9729E+00  0.3103E+02
  18.432  0.9640E+00  0.3104E+02
  18.442  0.9549E+00  0.3105E+02
  18.452  0.9394E+00  0.3106E+02
  18.462  0.9263E+00  0.3107E+02
  18.472  0.9177E+00  0.3107E+02
  18.482  0.9095E+00  0.3108E+02
  18.492  0.9019E+00  0.3109E+02
  18.502  0.8944E+00  0.3110E+02
  18.512  0.8870E+00  0.3111E+02
  18.522  0.8795E+00  0.3112E+02
  18.532  0.8719E+00  0.3113E+02
  18.542  0.8642E+00  0.3114E+02
  18.552  0.8568E+00  0.3115E+02
  18.562  0.8507E+00  0.3115E+02
  18.572  0.8447E+00  0.3116E+02
  18.582  0.8389E+00  0.3117E+02
  18.592  0.8332E+00  0.3118E+02
  18.602  0.8276E+00  0.3119E+02
  18.612  0.8221E+00  0.3120E+02
  18.622  0.8167E+00  0.3120E+02
  18.632  0.8115E+00  0.3121E+02
  18.642  0.8064E+00  0.3122E+02
  18.652  0.8016E+00  0.3123E+02
  18.662  0.7969E+00  0.3124E+02
  18.672  0.7923E+00  0.3124E+02
  18.682  0.7877E+00  0.3125E+02
  18.692  0.7830E+00  0.3126E+02
  18.702  0.7783E+00  0.3127E+02
  18.712  0.7737E+00  0.3128E+02
  18.722  0.7690E+00  0.3128E+02
  18.732  0.7644E+00  0.3129E+02
  18.742  0.7599E+00  0.3130E+02
  18.752  0.7556E+00  0.3131E+02
  18.762  0.7513E+00  0.3131E+02
  18.772  0.7471E+00  0.3132E+02
  18.782  0.7429E+00  0.3133E+02
  18.792  0.7389E+00  0.3134E+02
  18.802  0.7349E+00  0.3134E+02
  18.812  0.7309E+00  0.3135E+02
  18.822  0.7273E+00  0.3136E+02
  18.832  0.7237E+00  0.3137E+02
  18.842  0.7203E+00  0.3137E+02
  18.852  0.7173E+00  0.3138E+02
  18.862  0.7146E+00  0.3139E+02
  18.872  0.7119E+00  0.3139E+02
  18.882  0.7090E+00  0.3140E+02
  18.892  0.7047E+00  0.3141E+02
  18.902  0.6999E+00  0.3142E+02
  18.912  0.6963E+00  0.3142E+02
  18.922  0.6925E+00  0.3143E+02
  18.932  0.6885E+00  0.3144E+02
  18.942  0.6844E+00  0.3144E+02
  18.952  0.6803E+00  0.3145E+02
  18.962  0.6760E+00  0.3146E+02
  18.972  0.6718E+00  0.3146E+02
  18.982  0.6677E+00  0.3147E+02
  18.992  0.6640E+00  0.3148E+02
  19.002  0.6605E+00  0.3148E+02
  19.012  0.6573E+00  0.3149E+02
  19.022  0.6540E+00  0.3150E+02
  19.032  0.6503E+00  0.3150E+02
  19.042  0.6463E+00  0.3151E+02
  19.052  0.6423E+00  0.3152E+02
  19.062  0.6382E+00  0.3152E+02
  19.072  0.6341E+00  0.3153E+02
  19.082  0.6305E+00  0.3154E+02
  19.092  0.6289E+00  0.3154E+02
  19.102  0.6292E+00  0.3155E+02
  19.112  0.6293E+00  0.3155E+02
  19.122  0.6293E+00  0.3156E+02
  19.132  0.6253E+00  0.3157E+02
  19.142  0.6193E+00  0.3157E+02
  19.152  0.6123E+00  0.3158E+02
  19.162  0.6044E+00  0.3159E+02
  19.172  0.5966E+00  0.3159E+02
  19.182  0.5889E+00  0.3160E+02
  19.192  0.5811E+00  0.3160E+02
  19.202  0.5735E+00  0.3161E+02
  19.212  0.5667E+00  0.3161E+02
  19.222  0.5607E+00  0.3162E+02
  19.232  0.5551E+00  0.3163E+02
  19.242  0.5504E+00  0.3163E+02
  19.252  0.5453E+00  0.3164E+02
  19.262  0.5405E+00  0.3164E+02
  19.272  0.5361E+00  0.3165E+02
  19.282  0.5317E+00  0.3165E+02
  19.292  0.5273E+00  0.3166E+02
  19.302  0.5229E+00  0.3166E+02
  19.312  0.5184E+00  0.3167E+02
  19.322  0.5139E+00  0.3167E+02
  19.332  0.5095E+00  0.3168E+02
  19.342  0.5052E+00  0.3168E+02
  19.352  0.5010E+00  0.3169E+02
  19.362  0.4971E+00  0.3169E+02
  19.372  0.4935E+00  0.3170E+02
  19.382  0.4901E+00  0.3170E+02
  19.392  0.4867E+00  0.3171E+02
  19.402  0.4832E+00  0.3171E+02
  19.412  0.4799E+00  0.3172E+02
  19.422  0.4776E+00  0.3172E+02
  19.432  0.4761E+00  0.3173E+02
  19.442  0.4749E+00  0.3173E+02
  19.452  0.4742E+00  0.3174E+02
  19.462  0.4737E+00  0.3174E+02
  19.472  0.4736E+00  0.3175E+02
  19.482  0.4739E+00  0.3175E+02
  19.492  0.4747E+00  0.3176E+02
  19.502  0.4753E+00  0.3176E+02
  19.512  0.4752E+00  0.3177E+02
  19.522  0.4751E+00  0.3177E+02
  19.532  0.4785E+00  0.3178E+02
  19.542  0.4850E+00  0.3178E+02
  19.552  0.4926E+00  0.3179E+02
  19.562  0.5013E+00  0.3179E+02
  19.572  0.5107E+00  0.3180E+02
  19.582  0.5149E+00  0.3180E+02
  19.592  0.5074E+00  0.3181E+02
  19.602  0.5039E+00  0.3181E+02
  19.612  0.4968E+00  0.3182E+02
  19.622  0.4903E+00  0.3182E+02
  19.632  0.4877E+00  0.3183E+02
  19.642  0.4849E+00  0.3183E+02
  19.652  0.4816E+00  0.3183E+02
  19.662  0.4779E+00  0.3184E+02
  19.672  0.4733E+00  0.3184E+02
  19.682  0.4685E+00  0.3185E+02
  19.692  0.4633E+00  0.3185E+02
  19.702  0.4575E+00  0.3186E+02
  19.712  0.4503E+00  0.3186E+02
  19.722  0.4461E+00  0.3187E+02
  19.732  0.4445E+00  0.3187E+02
  19.742  0.4421E+00  0.3188E+02
  19.752  0.4385E+00  0.3188E+02
  19.762  0.4349E+00  0.3189E+02
  19.772  0.4333E+00  0.3189E+02
  19.782  0.4296E+00  0.3189E+02
  19.792  0.4246E+00  0.3190E+02
  19.802  0.4190E+00  0.3190E+02
  19.812  0.4128E+00  0.3191E+02
  19.822  0.4096E+00  0.3191E+02
  19.832  0.3971E+00  0.3191E+02
  19.842  0.3836E+00  0.3192E+02
  19.852  0.3672E+00  0.3192E+02
  19.862  0.3519E+00  0.3193E+02
  19.872  0.3407E+00  0.3193E+02
  19.882  0.3275E+00  0.3193E+02
  19.892  0.3132E+00  0.3194E+02
  19.902  0.2981E+00  0.3194E+02
  19.912  0.2854E+00  0.3194E+02
  19.922  0.2703E+00  0.3194E+02
  19.932  0.2552E+00  0.3195E+02
  19.942  0.2450E+00  0.3195E+02
  19.952  0.2377E+00  0.3195E+02
  19.962  0.2303E+00  0.3195E+02
  19.972  0.2230E+00  0.3196E+02
  19.982  0.2158E+00  0.3196E+02
  19.992  0.2088E+00  0.3196E+02
  20.002  0.2022E+00  0.3196E+02
  20.012  0.1969E+00  0.3197E+02
  20.022  0.1920E+00  0.3197E+02
  20.032  0.1867E+00  0.3197E+02
  20.042  0.1810E+00  0.3197E+02
  20.052  0.1756E+00  0.3197E+02
  20.062  0.1696E+00  0.3197E+02
  20.072  0.1629E+00  0.3198E+02
  20.082  0.1528E+00  0.3198E+02
  20.092  0.1446E+00  0.3198E+02
  20.102  0.1393E+00  0.3198E+02
  20.112  0.1338E+00  0.3198E+02
  20.122  0.1281E+00  0.3198E+02
  20.132  0.1223E+00  0.3198E+02
  20.142  0.1165E+00  0.3199E+02
  20.152  0.1107E+00  0.3199E+02
  20.162  0.1050E+00  0.3199E+02
  20.172  0.9934E-01  0.3199E+02
  20.182  0.9381E-01  0.3199E+02
  20.192  0.8859E-01  0.3199E+02
  20.202  0.8404E-01  0.3199E+02
  20.212  0.8114E-01  0.3199E+02
  20.222  0.7780E-01  0.3199E+02
  20.232  0.7391E-01  0.3199E+02
  20.242  0.6989E-01  0.3199E+02
  20.252  0.6561E-01  0.3200E+02
  20.262  0.5991E-01  0.3200E+02
  20.272  0.5480E-01  0.3200E+02
  20.282  0.5028E-01  0.3200E+02
  20.292  0.4635E-01  0.3200E+02
  20.302  0.4285E-01  0.3200E+02
  20.312  0.3916E-01  0.3200E+02
  20.322  0.3510E-01  0.3200E+02
  20.332  0.3067E-01  0.3200E+02
  20.342  0.2611E-01  0.3200E+02
  20.352  0.2159E-01  0.3200E+02
  20.362  0.1730E-01  0.3200E+02
  20.372  0.9782E-02  0.3200E+02
  20.382  0.2580E-02  0.3200E+02
  20.392  0.1496E-04  0.3200E+02
